timestamps,TP9,AF7,AF8,TP10,Right AUX,Marker0
1601765177.299,-44.434,-38.086,-29.297,-8.301,0.000,0
1601765177.303,-46.387,-33.203,-25.391,0.977,0.000,0
1601765177.307,-44.434,-34.180,-25.879,-0.488,0.000,0
1601765177.311,-37.598,-33.203,-23.926,9.277,0.000,0
1601765177.315,-27.832,-34.668,-22.461,14.648,0.000,0
1601765177.319,-23.438,-33.203,-28.809,6.836,0.000,0
1601765177.323,-32.227,-35.645,-30.762,5.859,0.000,0
1601765177.327,-25.391,-34.180,-27.832,9.766,0.000,0
1601765177.330,-20.996,-31.738,-32.227,-1.465,0.000,0
1601765177.334,-21.484,-35.156,-34.668,-6.836,0.000,0
1601765177.338,-21.484,-31.738,-33.203,-4.395,0.000,0
1601765177.342,-22.461,-31.738,-30.273,-6.348,0.000,0
1601765177.346,-30.762,-32.227,-25.391,-4.395,0.000,0
1601765177.350,-37.598,-33.691,-27.344,11.719,0.000,0
1601765177.354,-40.039,-38.574,-25.391,4.395,0.000,0
1601765177.358,-49.316,-36.133,-20.508,-11.230,0.000,0
1601765177.362,-53.711,-28.320,-23.926,2.441,0.000,0
1601765177.366,-45.410,-30.273,-21.973,-4.395,0.000,0
1601765177.370,-37.109,-39.062,-25.879,1.953,0.000,0
1601765177.373,-43.945,-42.480,-35.156,12.207,0.000,0
1601765177.377,-57.617,-37.598,-36.133,1.465,0.000,0
1601765177.381,-51.270,-30.762,-33.691,-1.465,0.000,0
1601765177.385,-43.457,-33.691,-28.809,1.953,0.000,0
1601765177.389,-47.363,-36.133,-26.367,2.930,0.000,0
1601765177.393,-49.805,-35.156,-26.855,-1.953,0.000,0
1601765177.397,-58.594,-38.574,-30.273,-10.254,0.000,0
1601765177.401,-67.383,-41.504,-31.250,-7.812,0.000,0
1601765177.405,-66.406,-39.551,-24.902,-1.465,0.000,0
1601765177.409,-56.152,-36.133,-22.461,-1.465,0.000,0
1601765177.413,-32.227,-36.621,-30.762,-0.488,0.000,0
1601765177.416,-34.180,-38.086,-33.203,-4.395,0.000,0
1601765177.420,-47.363,-37.109,-32.715,-15.625,0.000,0
1601765177.424,-45.898,-36.133,-33.203,-6.348,0.000,0
1601765177.428,-44.922,-35.645,-34.668,2.441,0.000,0
1601765177.432,-43.945,-31.738,-32.715,-6.348,0.000,0
1601765177.436,-47.852,-27.832,-26.367,-11.230,0.000,0
1601765177.440,-54.199,-28.320,-25.879,-19.043,0.000,0
1601765177.444,-55.664,-26.855,-24.902,-13.184,0.000,0
1601765177.448,-37.598,-22.461,-26.855,-0.977,0.000,0
1601765177.452,-25.879,-19.043,-31.738,13.672,0.000,0
1601765177.455,-45.898,-19.531,-33.203,6.348,0.000,0
1601765177.459,-42.480,-22.461,-36.133,-9.766,0.000,0
1601765177.463,-35.156,-23.438,-37.109,3.906,0.000,0
1601765177.467,-29.785,-20.996,-33.203,11.719,0.000,0
1601765177.471,-24.902,-23.926,-31.738,-2.930,0.000,0
1601765177.475,-38.086,-28.320,-28.809,-18.066,0.000,0
1601765177.479,-44.434,-29.297,-30.762,-20.020,0.000,0
1601765177.483,-38.086,-30.273,-34.668,-3.418,0.000,0
1601765177.487,-22.949,-28.320,-31.250,13.184,0.000,0
1601765177.491,-24.902,-26.367,-32.715,7.812,0.000,0
1601765177.495,-34.180,-22.461,-31.738,2.441,0.000,0
1601765177.498,-32.715,-20.020,-29.785,6.836,0.000,0
1601765177.502,-33.691,-22.461,-34.180,3.418,0.000,0
1601765177.506,-23.438,-24.902,-29.297,-3.906,0.000,1
1601765177.510,-15.625,-21.484,-24.414,2.930,0.000,0
1601765177.514,-37.598,-22.461,-32.227,-0.488,0.000,0
1601765177.518,-57.617,-25.391,-37.598,-18.066,0.000,0
1601765177.522,-56.641,-26.855,-37.109,-7.812,0.000,0
1601765177.526,-56.641,-32.227,-33.691,1.953,0.000,0
1601765177.530,-45.898,-33.691,-33.691,1.465,0.000,0
1601765177.534,-34.668,-33.203,-31.738,15.137,0.000,0
1601765177.538,-40.039,-30.762,-30.273,9.277,0.000,0
1601765177.541,-50.293,-31.250,-37.109,-4.883,0.000,0
1601765177.545,-52.246,-32.227,-36.133,0.000,0.000,0
1601765177.549,-34.180,-30.273,-28.809,2.930,0.000,0
1601765177.553,-25.391,-25.391,-26.367,-1.465,0.000,0
1601765177.557,-40.527,-22.949,-25.391,-13.184,0.000,0
1601765177.561,-46.875,-26.367,-23.438,-16.602,0.000,0
1601765177.565,-43.457,-28.809,-23.926,-9.277,0.000,0
1601765177.569,-39.551,-28.320,-28.809,-4.395,0.000,0
1601765177.573,-40.527,-27.344,-28.320,-4.395,0.000,0
1601765177.577,-46.387,-32.227,-26.367,-15.137,0.000,0
1601765177.580,-42.480,-33.691,-26.367,-13.184,0.000,0
1601765177.584,-30.273,-35.156,-24.902,0.977,0.000,0
1601765177.588,-30.762,-37.109,-24.902,1.465,0.000,0
1601765177.592,-30.273,-33.691,-24.414,0.977,0.000,0
1601765177.596,-43.945,-31.738,-25.391,-3.906,0.000,0
1601765177.600,-41.992,-27.832,-29.785,-9.277,0.000,0
1601765177.604,-28.320,-24.414,-27.344,-1.953,0.000,0
1601765177.608,-27.344,-22.949,-24.414,-0.488,0.000,0
1601765177.612,-40.527,-19.531,-26.367,0.488,0.000,0
1601765177.616,-48.340,-20.996,-28.809,-3.418,0.000,0
1601765177.620,-47.852,-27.344,-32.227,-19.043,0.000,0
1601765177.623,-40.039,-31.738,-37.109,-1.465,0.000,0
1601765177.627,-29.785,-35.156,-38.574,10.742,0.000,0
1601765177.631,-27.344,-34.180,-34.668,-0.977,0.000,0
1601765177.635,-32.227,-29.297,-33.691,0.488,0.000,0
1601765177.639,-38.574,-28.320,-39.551,-2.930,0.000,0
1601765177.643,-38.086,-31.738,-38.574,1.465,0.000,0
1601765177.647,-40.039,-30.762,-34.668,-0.488,0.000,0
1601765177.651,-31.250,-28.320,-32.227,-18.555,0.000,0
1601765177.655,-34.668,-25.391,-33.691,-25.879,0.000,0
1601765177.659,-38.086,-21.973,-35.156,-28.320,0.000,0
1601765177.663,-36.133,-22.461,-33.203,-21.973,0.000,0
1601765177.666,-38.574,-23.926,-34.668,-21.484,0.000,0
1601765177.670,-33.203,-25.391,-33.203,-23.438,0.000,0
1601765177.674,-35.645,-24.414,-33.691,-24.902,0.000,0
1601765177.678,-36.133,-23.926,-38.574,-23.926,0.000,0
1601765177.682,-40.039,-23.438,-34.180,-10.742,0.000,0
1601765177.686,-35.156,-26.855,-30.762,-8.789,0.000,0
1601765177.690,-18.066,-31.250,-32.227,-7.812,0.000,0
1601765177.694,-27.832,-26.855,-29.785,-2.930,0.000,0
1601765177.698,-41.992,-27.344,-32.227,-22.461,0.000,0
1601765177.702,-48.828,-31.738,-34.180,-31.738,0.000,0
1601765177.705,-44.434,-31.738,-35.156,-20.020,0.000,0
1601765177.709,-35.156,-27.832,-33.691,-1.465,0.000,0
1601765177.713,-29.297,-24.902,-33.203,3.418,0.000,0
1601765177.717,-39.551,-23.926,-34.180,-19.043,0.000,0
1601765177.721,-40.039,-20.508,-35.156,-25.391,0.000,0
1601765177.725,-34.180,-19.043,-35.645,-10.742,0.000,0
1601765177.729,-36.133,-16.602,-37.109,-0.977,0.000,0
1601765177.733,-41.504,-21.484,-33.203,-4.883,0.000,0
1601765177.737,-55.176,-28.809,-27.344,-23.926,0.000,0
1601765177.741,-66.895,-31.738,-31.250,-25.879,0.000,0
1601765177.745,-60.547,-30.273,-29.785,-12.695,0.000,0
1601765177.748,-61.523,-25.879,-26.367,-20.508,0.000,0
1601765177.752,-78.125,-28.809,-29.785,-29.297,0.000,0
1601765177.756,-62.988,-31.738,-34.668,-14.648,0.000,0
1601765177.760,-57.617,-31.738,-33.203,-15.137,0.000,0
1601765177.764,-59.570,-32.227,-30.762,-28.320,0.000,0
1601765177.768,-43.457,-31.738,-28.809,-30.273,0.000,0
1601765177.772,-35.645,-34.668,-32.227,-35.645,0.000,0
1601765177.776,-40.039,-39.551,-36.133,-46.875,0.000,0
1601765177.780,-54.199,-38.574,-38.574,-42.480,0.000,0
1601765177.784,-40.527,-34.668,-44.434,-21.484,0.000,0
1601765177.788,-21.484,-33.203,-42.969,-4.883,0.000,0
1601765177.791,-19.531,-30.273,-37.598,-6.348,0.000,0
1601765177.795,-33.691,-33.203,-40.039,-28.809,0.000,0
1601765177.799,-43.457,-34.668,-43.457,-41.504,0.000,0
1601765177.803,-31.738,-30.273,-43.457,-20.508,0.000,0
1601765177.807,-18.555,-23.438,-38.574,-2.441,0.000,0
1601765177.811,-10.742,-20.020,-34.180,-2.441,0.000,0
1601765177.815,-12.695,-20.020,-33.691,-9.277,0.000,0
1601765177.819,-32.227,-25.391,-34.180,-18.066,0.000,0
1601765177.823,-45.898,-29.297,-43.457,-16.602,0.000,0
1601765177.827,-32.715,-24.414,-35.645,-21.973,0.000,0
1601765177.830,-25.879,-25.391,-29.297,-13.184,0.000,0
1601765177.834,-24.902,-23.926,-35.645,-2.441,0.000,0
1601765177.838,-34.180,-20.996,-32.227,0.000,0.000,0
1601765177.842,-30.762,-20.996,-27.832,-3.418,0.000,0
1601765177.846,-21.484,-19.043,-25.391,-11.719,0.000,0
1601765177.850,-17.090,-14.160,-25.391,4.395,0.000,0
1601765177.854,-22.461,-17.090,-25.391,12.695,0.000,0
1601765177.858,-29.785,-22.461,-30.273,6.348,0.000,0
1601765177.862,-24.902,-22.949,-29.785,10.254,0.000,0
1601765177.866,-19.043,-26.855,-24.902,1.465,0.000,0
1601765177.870,-6.836,-30.273,-28.809,-8.789,0.000,0
1601765177.873,-22.461,-32.227,-31.250,-1.465,0.000,0
1601765177.877,-48.828,-35.645,-26.367,-25.391,0.000,0
1601765177.881,-31.738,-32.227,-33.691,-32.227,0.000,0
1601765177.885,-19.043,-27.344,-35.645,0.488,0.000,0
1601765177.889,-29.297,-29.297,-29.785,2.930,0.000,0
1601765177.893,-32.227,-36.133,-31.250,4.883,0.000,0
1601765177.897,-33.203,-40.527,-27.832,6.348,0.000,0
1601765177.901,-40.527,-38.574,-28.320,-2.930,0.000,0
1601765177.905,-34.180,-35.156,-24.902,-0.977,0.000,0
1601765177.909,-20.996,-33.203,-23.926,-6.348,0.000,0
1601765177.913,-15.137,-30.273,-25.391,-6.836,0.000,0
1601765177.916,-18.555,-30.273,-27.344,-16.602,0.000,0
1601765177.920,-32.715,-32.715,-35.645,-1.953,0.000,0
1601765177.924,-39.551,-31.738,-37.598,3.906,0.000,0
1601765177.928,-25.879,-34.668,-33.203,-7.812,0.000,0
1601765177.932,-27.344,-34.668,-32.227,-4.395,0.000,0
1601765177.936,-30.273,-32.715,-34.180,-13.184,0.000,0
1601765177.940,-27.832,-34.180,-35.645,-18.555,0.000,0
1601765177.944,-27.832,-35.645,-37.598,-9.766,0.000,0
1601765177.948,-18.555,-32.715,-30.762,-6.836,0.000,0
1601765177.952,-11.230,-31.250,-30.762,-7.812,0.000,0
1601765177.955,-13.672,-31.738,-30.762,-5.371,0.000,0
1601765177.959,-34.668,-31.250,-25.879,-4.395,0.000,0
1601765177.963,-40.039,-33.691,-21.973,-2.441,0.000,0
1601765177.967,-37.109,-35.645,-29.785,-11.719,0.000,0
1601765177.971,-35.156,-37.109,-31.250,-19.531,0.000,0
1601765177.975,-34.668,-37.109,-27.344,-15.137,0.000,0
1601765177.979,-43.457,-37.598,-33.691,-13.672,0.000,0
1601765177.983,-34.180,-39.551,-33.203,-21.973,0.000,0
1601765177.987,-20.508,-36.621,-33.203,-20.508,0.000,0
1601765177.991,-20.020,-34.180,-36.621,-10.254,0.000,0
1601765177.995,-15.625,-30.762,-35.645,-9.277,0.000,0
1601765177.998,-4.395,-27.344,-31.738,-5.371,0.000,0
1601765178.002,-10.742,-30.762,-32.715,-12.207,0.000,0
1601765178.006,-24.414,-33.691,-35.156,-17.090,0.000,0
1601765178.010,-22.949,-28.320,-39.062,-14.160,0.000,0
1601765178.014,-31.738,-26.367,-40.527,-17.090,0.000,0
1601765178.018,-50.293,-27.344,-40.527,-14.160,0.000,0
1601765178.022,-49.805,-27.832,-40.527,-6.836,0.000,0
1601765178.026,-43.457,-26.855,-36.621,-4.883,0.000,0
1601765178.030,-37.598,-26.855,-32.227,-2.441,0.000,0
1601765178.034,-36.133,-24.902,-38.086,-7.324,0.000,0
1601765178.038,-47.363,-22.461,-37.598,-19.531,0.000,0
1601765178.041,-54.688,-25.391,-32.227,-9.766,0.000,0
1601765178.045,-45.410,-24.902,-38.574,-18.555,0.000,0
1601765178.049,-32.227,-27.832,-41.992,-38.574,0.000,0
1601765178.053,-36.621,-37.109,-37.598,-23.926,0.000,0
1601765178.057,-36.133,-35.645,-37.109,-17.090,0.000,0
1601765178.061,-42.969,-32.715,-39.062,-23.438,0.000,0
1601765178.065,-52.734,-33.691,-37.109,-21.484,0.000,0
1601765178.069,-51.758,-32.715,-34.668,-20.996,0.000,0
1601765178.073,-44.922,-35.645,-39.062,-25.879,0.000,0
1601765178.077,-62.500,-43.457,-37.109,-36.133,0.000,0
1601765178.080,-69.824,-43.945,-36.621,-29.297,0.000,0
1601765178.084,-55.664,-40.039,-35.645,-9.277,0.000,0
1601765178.088,-59.082,-39.062,-33.203,-16.602,0.000,0
1601765178.092,-59.570,-36.621,-33.203,-19.043,0.000,0
1601765178.096,-60.059,-35.156,-34.180,-22.949,0.000,0
1601765178.100,-52.734,-32.715,-34.668,-48.828,0.000,0
1601765178.104,-48.340,-34.180,-35.156,-31.738,0.000,0
1601765178.108,-50.293,-36.133,-34.668,-14.160,0.000,0
1601765178.112,-50.781,-35.156,-31.738,-29.297,0.000,0
1601765178.116,-58.594,-32.227,-34.668,-26.367,0.000,0
1601765178.120,-61.035,-31.738,-34.180,-29.297,0.000,0
1601765178.123,-68.848,-34.668,-35.156,-25.391,0.000,0
1601765178.127,-57.617,-31.250,-37.109,-13.184,0.000,0
1601765178.131,-50.781,-27.832,-34.668,-12.207,0.000,0
1601765178.135,-54.199,-24.414,-32.227,-17.578,0.000,0
1601765178.139,-46.387,-23.926,-27.832,-26.367,0.000,0
1601765178.143,-49.316,-24.414,-29.785,-30.273,0.000,0
1601765178.147,-59.082,-26.367,-29.297,-32.715,0.000,0
1601765178.151,-51.270,-24.902,-28.809,-21.973,0.000,0
1601765178.155,-42.480,-24.414,-32.227,-20.508,0.000,0
1601765178.159,-54.199,-29.297,-34.180,-33.691,0.000,0
1601765178.163,-45.898,-25.879,-34.180,-23.438,0.000,0
1601765178.166,-34.180,-23.926,-34.668,-12.695,0.000,0
1601765178.170,-41.504,-23.438,-35.156,-17.578,0.000,0
1601765178.174,-47.852,-23.438,-31.738,-16.602,0.000,0
1601765178.178,-49.805,-23.926,-30.273,-17.090,0.000,0
1601765178.182,-47.363,-26.855,-26.367,-18.555,0.000,0
1601765178.186,-37.109,-26.367,-27.832,1.465,0.000,0
1601765178.190,-32.227,-26.367,-31.738,3.906,0.000,0
1601765178.194,-43.945,-29.785,-29.785,-24.902,0.000,0
1601765178.198,-54.199,-29.297,-31.738,-24.414,0.000,0
1601765178.202,-57.617,-31.250,-31.738,-15.137,0.000,0
1601765178.205,-57.129,-34.180,-31.738,-17.090,0.000,0
1601765178.209,-42.969,-36.621,-32.715,-6.348,0.000,0
1601765178.213,-33.691,-35.156,-30.273,0.488,0.000,0
1601765178.217,-29.297,-29.785,-26.367,6.836,0.000,0
1601765178.221,-30.273,-28.809,-26.855,3.418,0.000,0
1601765178.225,-29.297,-33.203,-27.832,-6.836,0.000,0
1601765178.229,-28.809,-30.273,-28.809,-7.324,0.000,0
1601765178.233,-30.762,-24.414,-26.855,-0.977,0.000,0
1601765178.237,-41.992,-23.926,-25.879,-0.488,0.000,0
1601765178.241,-45.898,-26.855,-28.809,-20.020,0.000,0
1601765178.245,-27.832,-22.949,-28.320,-18.066,0.000,0
1601765178.248,-21.973,-22.949,-28.809,-5.371,0.000,0
1601765178.252,-23.926,-30.273,-28.320,1.465,0.000,0
1601765178.256,-32.227,-30.762,-22.461,1.465,0.000,0
1601765178.260,-34.180,-31.250,-19.043,-6.348,0.000,0
1601765178.264,-23.438,-32.227,-20.508,-7.324,0.000,0
1601765178.268,-20.508,-28.809,-22.461,-7.812,0.000,0
1601765178.272,-18.555,-24.902,-24.414,-8.301,0.000,0
1601765178.276,-16.602,-23.438,-26.367,2.930,0.000,0
1601765178.280,-20.996,-26.855,-29.297,-2.441,0.000,0
1601765178.284,-18.066,-29.297,-28.320,0.488,0.000,0
1601765178.288,-23.926,-28.809,-23.438,5.371,0.000,0
1601765178.291,-16.602,-28.809,-22.461,-14.160,0.000,0
1601765178.295,-4.395,-30.762,-29.297,-19.043,0.000,0
1601765178.299,-12.207,-32.715,-30.762,-19.531,0.000,0
1601765178.303,-25.879,-31.738,-31.250,-20.020,0.000,0
1601765178.307,-27.344,-33.203,-33.691,-8.789,0.000,0
1601765178.311,-22.461,-36.133,-30.762,-2.930,0.000,0
1601765178.315,-18.066,-34.180,-26.367,-11.230,0.000,0
1601765178.319,-27.344,-34.180,-26.367,-23.438,0.000,0
1601765178.323,-26.367,-31.738,-30.762,-13.672,0.000,0
1601765178.327,-9.277,-29.297,-28.809,4.883,0.000,0
1601765178.330,-20.508,-35.156,-29.297,-8.789,0.000,0
1601765178.334,-31.250,-39.062,-33.203,-22.949,0.000,0
1601765178.338,-44.434,-36.133,-32.715,-16.113,0.000,0
1601765178.342,-42.969,-32.715,-27.832,-19.531,0.000,0
1601765178.346,-21.484,-28.320,-28.320,-20.020,0.000,0
1601765178.350,-16.602,-30.273,-37.109,-7.324,0.000,0
1601765178.354,-15.625,-31.738,-34.668,-5.371,0.000,0
1601765178.358,-23.438,-28.320,-29.785,-5.859,0.000,0
1601765178.362,-28.320,-31.738,-31.250,-5.371,0.000,0
1601765178.366,-23.926,-30.273,-35.645,-4.883,0.000,0
1601765178.370,-11.230,-28.809,-35.156,-6.348,0.000,0
1601765178.373,-0.977,-32.715,-37.109,-12.695,0.000,0
1601765178.377,-21.484,-34.668,-41.504,-20.020,0.000,0
1601765178.381,-34.668,-34.180,-38.086,-10.742,0.000,0
1601765178.385,-24.414,-31.738,-34.668,2.441,0.000,0
1601765178.389,-23.438,-30.273,-35.645,-11.719,0.000,0
1601765178.393,-26.367,-30.762,-32.715,-18.066,0.000,0
1601765178.397,-30.273,-30.762,-32.227,-10.254,0.000,0
1601765178.401,-41.016,-35.645,-32.715,-18.066,0.000,0
1601765178.405,-45.410,-36.133,-33.691,-19.043,0.000,0
1601765178.409,-31.738,-29.785,-33.203,-10.742,0.000,0
1601765178.413,-8.789,-29.297,-30.762,-11.230,0.000,0
1601765178.416,-29.785,-31.738,-36.133,-12.207,0.000,0
1601765178.420,-35.156,-30.762,-32.227,-11.719,0.000,0
1601765178.424,-22.949,-24.902,-23.438,5.371,0.000,0
1601765178.428,-27.832,-22.461,-30.273,7.812,0.000,0
1601765178.432,-24.902,-23.926,-33.691,-11.719,0.000,0
1601765178.436,-30.762,-27.832,-30.762,-15.137,0.000,0
1601765178.440,-38.574,-30.273,-30.273,-17.090,0.000,0
1601765178.444,-29.785,-31.250,-31.738,-12.207,0.000,0
1601765178.448,-22.949,-34.668,-35.645,-17.578,0.000,0
1601765178.452,-29.785,-30.762,-36.133,-26.367,0.000,0
1601765178.455,-50.293,-30.273,-31.738,-20.020,0.000,0
1601765178.459,-45.898,-32.227,-25.391,-8.301,0.000,0
1601765178.463,-43.457,-25.391,-25.879,3.906,0.000,0
1601765178.467,-53.223,-27.344,-30.273,4.395,0.000,0
1601765178.471,-42.969,-31.738,-28.809,6.836,0.000,0
1601765178.475,-33.203,-27.344,-23.926,0.000,0.000,0
1601765178.479,-45.898,-24.414,-25.391,-11.230,0.000,0
1601765178.483,-47.852,-28.320,-28.320,-16.113,0.000,0
1601765178.487,-42.480,-28.809,-32.715,-11.719,0.000,0
1601765178.491,-41.992,-25.391,-34.180,0.977,0.000,0
1601765178.495,-52.734,-27.344,-35.156,-2.441,0.000,0
1601765178.498,-68.848,-27.832,-31.738,-2.930,0.000,0
1601765178.502,-63.965,-27.832,-32.227,-2.441,0.000,0
1601765178.506,-45.898,-30.762,-33.691,-15.137,0.000,0
1601765178.510,-46.387,-25.879,-29.785,-20.996,0.000,0
1601765178.514,-55.176,-22.461,-29.785,-20.020,0.000,0
1601765178.518,-64.941,-24.902,-32.227,-14.648,0.000,0
1601765178.522,-68.848,-30.273,-28.320,-2.441,0.000,0
1601765178.526,-54.688,-32.227,-26.855,4.883,0.000,0
1601765178.530,-45.898,-27.344,-24.414,8.789,0.000,0
1601765178.534,-51.758,-25.391,-24.902,6.836,0.000,0
1601765178.538,-56.152,-27.344,-30.762,5.859,0.000,0
1601765178.541,-44.434,-27.832,-26.367,5.371,0.000,0
1601765178.545,-34.668,-26.855,-24.414,-0.977,0.000,0
1601765178.549,-47.363,-31.250,-26.367,-5.371,0.000,0
1601765178.553,-41.504,-34.180,-34.180,-5.371,0.000,2
1601765178.557,-39.062,-34.180,-40.039,-12.207,0.000,0
1601765178.561,-44.922,-33.203,-31.738,-2.441,0.000,0
1601765178.565,-40.039,-30.273,-29.785,0.977,0.000,0
1601765178.569,-25.391,-27.832,-34.180,-2.441,0.000,0
1601765178.573,-26.855,-31.738,-28.809,0.000,0.000,0
1601765178.577,-41.992,-32.227,-29.785,-13.184,0.000,0
1601765178.580,-44.434,-29.785,-35.645,-11.230,0.000,0
1601765178.584,-39.551,-29.785,-36.133,8.789,0.000,0
1601765178.588,-29.297,-28.809,-35.645,5.859,0.000,0
1601765178.592,-40.039,-32.715,-32.227,0.977,0.000,0
1601765178.596,-52.246,-33.203,-30.273,-2.930,0.000,0
1601765178.600,-50.293,-31.250,-30.273,-4.395,0.000,0
1601765178.604,-33.691,-33.203,-31.738,-10.254,0.000,0
1601765178.608,-16.113,-33.203,-34.668,-20.508,0.000,0
1601765178.612,-30.762,-33.691,-31.738,-3.906,0.000,0
1601765178.616,-58.594,-34.668,-27.832,4.883,0.000,0
1601765178.620,-65.430,-34.180,-26.367,-10.254,0.000,0
1601765178.623,-57.617,-33.691,-27.344,-12.207,0.000,0
1601765178.627,-51.758,-32.715,-30.273,-8.301,0.000,0
1601765178.631,-40.527,-28.320,-31.738,-5.859,0.000,0
1601765178.635,-56.152,-24.902,-28.809,-5.371,0.000,0
1601765178.639,-67.383,-25.391,-29.297,-9.766,0.000,0
1601765178.643,-42.969,-27.832,-33.203,0.977,0.000,0
1601765178.647,-39.062,-27.344,-31.738,9.766,0.000,0
1601765178.651,-42.480,-26.367,-27.832,-6.348,0.000,0
1601765178.655,-38.574,-28.809,-33.691,-13.184,0.000,0
1601765178.659,-36.621,-30.762,-38.574,-12.207,0.000,0
1601765178.663,-34.668,-30.273,-31.250,-5.859,0.000,0
1601765178.666,-30.273,-29.297,-33.203,-6.348,0.000,0
1601765178.670,-23.926,-28.320,-34.668,-9.277,0.000,0
1601765178.674,-26.855,-27.344,-25.879,-0.488,0.000,0
1601765178.678,-34.180,-23.926,-24.414,-4.395,0.000,0
1601765178.682,-38.574,-30.762,-32.227,-11.230,0.000,0
1601765178.686,-32.715,-33.691,-29.297,-18.066,0.000,0
1601765178.690,-27.832,-32.227,-27.832,-13.672,0.000,0
1601765178.694,-30.273,-34.180,-35.156,-12.695,0.000,0
1601765178.698,-46.875,-33.691,-37.598,-27.832,0.000,0
1601765178.702,-57.129,-34.668,-40.039,-23.926,0.000,0
1601765178.705,-42.969,-34.668,-38.574,-3.906,0.000,0
1601765178.709,-29.785,-32.715,-31.738,-7.324,0.000,0
1601765178.713,-24.414,-25.879,-25.879,-8.789,0.000,0
1601765178.717,-29.785,-23.438,-26.855,-8.789,0.000,0
1601765178.721,-39.062,-28.320,-30.273,-25.391,0.000,0
1601765178.725,-39.551,-30.762,-32.227,-21.484,0.000,0
1601765178.729,-29.297,-30.273,-32.227,-18.066,0.000,0
1601765178.733,-31.250,-27.344,-31.250,-18.066,0.000,0
1601765178.737,-40.527,-31.738,-28.320,-16.602,0.000,0
1601765178.741,-45.898,-37.598,-27.344,-19.043,0.000,0
1601765178.745,-44.922,-34.180,-32.227,-4.883,0.000,0
1601765178.748,-40.039,-35.156,-29.297,-14.648,0.000,0
1601765178.752,-28.809,-37.598,-29.785,-31.250,0.000,0
1601765178.756,-36.133,-36.133,-29.785,-22.949,0.000,0
1601765178.760,-35.645,-32.227,-27.344,-16.602,0.000,0
1601765178.764,-37.598,-33.203,-28.320,-16.602,0.000,0
1601765178.768,-36.133,-37.598,-28.320,-8.789,0.000,0
1601765178.772,-25.879,-31.738,-25.391,13.184,0.000,0
1601765178.776,-31.738,-28.320,-21.973,-1.953,0.000,0
1601765178.780,-41.992,-36.133,-33.203,-33.203,0.000,0
1601765178.784,-45.410,-36.621,-40.039,-28.320,0.000,0
1601765178.788,-44.922,-36.621,-37.109,-18.066,0.000,0
1601765178.791,-37.598,-38.574,-36.621,-26.367,0.000,0
1601765178.795,-47.852,-41.504,-37.109,-30.762,0.000,0
1601765178.799,-57.129,-36.621,-41.504,-18.066,0.000,0
1601765178.803,-46.387,-32.715,-46.387,-20.996,0.000,0
1601765178.807,-42.969,-31.738,-40.527,-15.137,0.000,0
1601765178.811,-44.922,-33.691,-34.180,-7.812,0.000,0
1601765178.815,-42.969,-31.250,-35.156,-13.184,0.000,0
1601765178.819,-44.922,-27.832,-43.945,-11.719,0.000,0
1601765178.823,-42.480,-29.785,-45.410,-6.836,0.000,0
1601765178.827,-24.902,-26.367,-35.156,-3.906,0.000,0
1601765178.830,-13.672,-24.414,-29.297,-17.578,0.000,0
1601765178.834,-22.949,-26.855,-33.203,-32.227,0.000,0
1601765178.838,-39.062,-26.855,-39.551,-24.414,0.000,0
1601765178.842,-28.809,-24.902,-38.574,-6.348,0.000,0
1601765178.846,-10.742,-26.367,-37.109,-4.395,0.000,0
1601765178.850,-17.090,-28.809,-30.762,-3.418,0.000,0
1601765178.854,-19.043,-27.832,-27.344,0.977,0.000,0
1601765178.858,-22.949,-27.344,-30.273,-0.488,0.000,0
1601765178.862,-23.926,-28.809,-32.227,-0.977,0.000,0
1601765178.866,-13.184,-26.855,-31.250,-0.488,0.000,0
1601765178.870,-11.230,-28.320,-33.691,1.465,0.000,0
1601765178.873,-15.137,-36.621,-36.621,3.906,0.000,0
1601765178.877,-27.832,-36.621,-34.180,-11.719,0.000,0
1601765178.881,-23.438,-35.645,-39.062,-14.648,0.000,0
1601765178.885,-15.137,-34.180,-41.504,-10.254,0.000,0
1601765178.889,-7.324,-32.715,-33.691,-10.742,0.000,0
1601765178.893,-13.184,-36.621,-30.273,-7.812,0.000,0
1601765178.897,-13.672,-35.156,-30.762,-24.414,0.000,0
1601765178.901,-8.789,-34.668,-35.645,-22.949,0.000,0
1601765178.905,-23.926,-39.062,-36.621,0.488,0.000,0
1601765178.909,-21.973,-39.062,-32.227,17.578,0.000,0
1601765178.913,-25.391,-36.621,-34.668,18.066,0.000,0
1601765178.916,-32.715,-37.109,-36.133,-17.090,0.000,0
1601765178.920,-23.926,-41.504,-36.621,-33.203,0.000,0
1601765178.924,-29.297,-41.992,-33.691,-25.391,0.000,0
1601765178.928,-36.133,-34.668,-29.297,-5.371,0.000,0
1601765178.932,-24.414,-31.250,-31.738,20.020,0.000,0
1601765178.936,-29.297,-31.738,-34.668,-1.465,0.000,0
1601765178.940,-37.109,-32.227,-33.691,-30.762,0.000,0
1601765178.944,-41.504,-29.785,-35.645,-14.648,0.000,0
1601765178.948,-28.809,-27.344,-39.062,-1.953,0.000,0
1601765178.952,-18.066,-27.344,-35.645,-7.812,0.000,0
1601765178.955,-27.344,-28.320,-36.133,-9.766,0.000,0
1601765178.959,-27.344,-31.250,-35.645,-4.883,0.000,0
1601765178.963,-26.367,-30.762,-30.762,0.000,0.000,0
1601765178.967,-21.484,-30.762,-25.879,8.789,0.000,0
1601765178.971,-8.789,-32.715,-25.879,8.789,0.000,0
1601765178.975,-17.578,-32.227,-31.738,-6.348,0.000,0
1601765178.979,-20.508,-30.273,-32.715,-18.555,0.000,0
1601765178.983,-12.207,-23.438,-33.203,-11.230,0.000,0
1601765178.987,-13.184,-23.438,-31.250,5.371,0.000,0
1601765178.991,-13.672,-27.832,-30.762,-3.418,0.000,0
1601765178.995,-7.324,-25.879,-32.227,-8.789,0.000,0
1601765178.998,-9.766,-28.320,-28.809,-0.977,0.000,0
1601765179.002,-16.113,-26.855,-26.855,9.277,0.000,0
1601765179.006,-14.648,-18.555,-27.832,21.973,0.000,0
1601765179.010,-10.254,-20.020,-28.809,8.301,0.000,0
1601765179.014,-13.672,-27.832,-27.832,-9.277,0.000,0
1601765179.018,-26.367,-30.273,-29.297,-17.578,0.000,0
1601765179.022,-14.160,-28.320,-31.738,0.977,0.000,0
1601765179.026,-11.719,-27.832,-30.762,5.859,0.000,0
1601765179.030,-20.508,-25.879,-30.762,-20.020,0.000,0
1601765179.034,-13.184,-23.926,-30.273,-8.301,0.000,0
1601765179.038,-23.926,-24.414,-29.297,0.977,0.000,0
1601765179.041,-36.133,-27.832,-27.344,19.043,0.000,0
1601765179.045,-26.855,-29.297,-25.391,19.043,0.000,0
1601765179.049,-11.230,-31.250,-29.785,-11.719,0.000,0
1601765179.053,-3.418,-30.762,-28.320,-7.324,0.000,0
1601765179.057,-5.859,-29.785,-26.367,-3.418,0.000,0
1601765179.061,-22.461,-31.250,-29.785,-6.836,0.000,0
1601765179.065,-28.320,-37.598,-27.832,1.465,0.000,0
1601765179.069,-15.625,-39.551,-25.879,7.324,0.000,0
1601765179.073,-18.066,-32.715,-29.297,14.160,0.000,0
1601765179.077,-25.879,-30.762,-33.203,17.090,0.000,0
1601765179.080,-24.902,-31.250,-26.855,13.184,0.000,0
1601765179.084,-22.949,-32.227,-24.414,-6.836,0.000,0
1601765179.088,-9.277,-29.785,-29.297,-9.766,0.000,0
1601765179.092,-10.742,-27.832,-26.855,-8.301,0.000,0
1601765179.096,-29.297,-34.180,-27.344,-16.602,0.000,0
1601765179.100,-31.250,-30.762,-32.227,-2.441,0.000,0
1601765179.104,-26.367,-29.785,-33.203,13.672,0.000,0
1601765179.108,-6.348,-28.320,-30.273,11.230,0.000,0
1601765179.112,1.953,-25.391,-23.438,-3.418,0.000,0
1601765179.116,-4.883,-27.344,-23.926,-6.836,0.000,0
1601765179.120,0.488,-24.902,-28.809,-3.906,0.000,0
1601765179.123,1.465,-26.855,-24.414,6.348,0.000,0
1601765179.127,-11.719,-29.297,-19.531,2.441,0.000,0
1601765179.131,-4.883,-29.785,-23.926,-9.277,0.000,0
1601765179.135,-13.184,-34.180,-28.320,-5.371,0.000,0
1601765179.139,-31.250,-31.250,-27.344,-1.953,0.000,0
1601765179.143,-19.531,-26.367,-28.809,3.418,0.000,0
1601765179.147,-11.230,-26.855,-29.297,-0.977,0.000,0
1601765179.151,-3.906,-24.414,-29.785,-5.859,0.000,0
1601765179.155,-11.230,-24.902,-30.273,-2.441,0.000,0
1601765179.159,-31.738,-27.832,-33.203,-12.207,0.000,0
1601765179.163,-36.133,-29.785,-30.762,-9.766,0.000,0
1601765179.166,-31.738,-33.203,-25.391,8.301,0.000,0
1601765179.170,-33.691,-32.227,-26.367,7.324,0.000,0
1601765179.174,-14.160,-28.809,-27.344,-0.977,0.000,0
1601765179.178,-10.742,-28.809,-30.273,-4.883,0.000,0
1601765179.182,-29.785,-27.832,-31.738,-6.836,0.000,0
1601765179.186,-16.602,-26.855,-27.344,-11.230,0.000,0
1601765179.190,-17.090,-26.367,-24.902,0.000,0.000,0
1601765179.194,-41.992,-28.809,-26.855,-15.625,0.000,0
1601765179.198,-46.875,-27.344,-33.691,-21.973,0.000,0
1601765179.202,-44.922,-27.832,-36.621,-8.301,0.000,0
1601765179.205,-34.668,-27.344,-34.180,3.418,0.000,0
1601765179.209,-27.344,-25.391,-28.809,13.672,0.000,0
1601765179.213,-37.109,-27.832,-28.320,10.254,0.000,0
1601765179.217,-41.504,-28.320,-30.273,5.859,0.000,0
1601765179.221,-45.410,-26.367,-28.809,-3.418,0.000,0
1601765179.225,-42.969,-27.344,-24.414,0.977,0.000,0
1601765179.229,-31.738,-27.344,-30.273,-1.953,0.000,0
1601765179.233,-17.090,-23.438,-39.551,-19.531,0.000,0
1601765179.237,-22.461,-26.367,-41.992,-25.391,0.000,0
1601765179.241,-42.480,-28.809,-41.016,-17.090,0.000,0
1601765179.245,-39.551,-29.785,-35.156,-0.488,0.000,0
1601765179.248,-29.297,-26.855,-35.156,-5.371,0.000,0
1601765179.252,-30.273,-30.762,-39.551,-20.508,0.000,0
1601765179.256,-36.621,-36.621,-36.133,-14.160,0.000,0
1601765179.260,-26.367,-27.344,-38.574,-9.766,0.000,0
1601765179.264,-17.090,-21.973,-42.480,-13.672,0.000,0
1601765179.268,-22.949,-22.461,-30.273,3.906,0.000,0
1601765179.272,-26.367,-26.855,-32.227,3.418,0.000,0
1601765179.276,-24.414,-30.762,-32.227,-11.230,0.000,0
1601765179.280,-24.414,-32.227,-37.598,-8.789,0.000,0
1601765179.284,-24.414,-31.738,-43.945,2.930,0.000,0
1601765179.288,-17.578,-31.738,-34.668,19.531,0.000,0
1601765179.291,-13.184,-33.691,-32.227,18.555,0.000,0
1601765179.295,-18.066,-32.715,-32.715,6.836,0.000,0
1601765179.299,-22.461,-34.180,-32.715,-9.766,0.000,0
1601765179.303,-28.809,-36.133,-37.109,-11.230,0.000,0
1601765179.307,-25.391,-30.762,-36.133,7.324,0.000,0
1601765179.311,-28.320,-31.250,-36.621,1.465,0.000,0
1601765179.315,-34.180,-25.879,-33.691,9.277,0.000,0
1601765179.319,-26.367,-20.508,-29.785,13.184,0.000,0
1601765179.323,-18.066,-25.391,-32.227,-6.348,0.000,0
1601765179.327,-11.230,-21.973,-26.855,-7.324,0.000,0
1601765179.330,-1.953,-20.996,-25.391,8.789,0.000,0
1601765179.334,4.395,-23.438,-27.832,11.719,0.000,0
1601765179.338,-20.020,-22.949,-32.715,-11.230,0.000,0
1601765179.342,-26.855,-20.996,-33.203,-2.441,0.000,0
1601765179.346,-20.996,-22.461,-28.320,15.625,0.000,0
1601765179.350,-25.391,-23.926,-25.391,0.488,0.000,0
1601765179.354,-34.180,-25.391,-21.484,-2.930,0.000,0
1601765179.358,-32.227,-30.762,-20.996,15.137,0.000,0
1601765179.362,-24.414,-28.320,-29.785,-0.488,0.000,0
1601765179.366,-25.391,-24.902,-30.273,-2.930,0.000,0
1601765179.370,-23.926,-23.926,-23.438,13.184,0.000,0
1601765179.373,-24.414,-20.996,-26.367,5.859,0.000,0
1601765179.377,-33.203,-21.973,-29.785,-13.184,0.000,0
1601765179.381,-41.016,-27.344,-33.203,-14.648,0.000,0
1601765179.385,-30.762,-26.855,-33.691,9.766,0.000,0
1601765179.389,-24.902,-22.949,-26.367,10.742,0.000,0
1601765179.393,-28.320,-24.414,-22.949,-7.324,0.000,0
1601765179.397,-32.227,-23.926,-30.762,-16.602,0.000,0
1601765179.401,-22.461,-24.414,-33.203,-13.184,0.000,0
1601765179.405,-19.043,-29.785,-30.762,-1.953,0.000,0
1601765179.409,-21.973,-33.203,-30.273,-4.883,0.000,0
1601765179.413,-22.949,-30.273,-34.180,-17.578,0.000,0
1601765179.416,-46.387,-30.273,-32.227,-11.719,0.000,0
1601765179.420,-58.105,-33.203,-29.297,-3.906,0.000,0
1601765179.424,-42.480,-30.273,-32.227,-4.395,0.000,0
1601765179.428,-45.898,-30.762,-30.762,5.859,0.000,0
1601765179.432,-39.062,-33.203,-31.738,11.719,0.000,0
1601765179.436,-36.133,-32.227,-36.621,0.000,0.000,0
1601765179.440,-42.480,-33.203,-38.574,-11.230,0.000,0
1601765179.444,-38.574,-33.691,-32.715,-5.859,0.000,0
1601765179.448,-26.367,-32.227,-31.250,-5.859,0.000,0
1601765179.452,-22.949,-29.785,-32.227,-15.625,0.000,0
1601765179.455,-34.668,-29.297,-29.297,-6.348,0.000,0
1601765179.459,-27.344,-34.180,-28.809,6.348,0.000,0
1601765179.463,-22.949,-37.598,-28.809,12.207,0.000,0
1601765179.467,-31.250,-37.598,-29.297,18.555,0.000,0
1601765179.471,-18.555,-38.086,-30.762,1.953,0.000,0
1601765179.475,-23.438,-36.133,-25.879,6.836,0.000,0
1601765179.479,-44.922,-31.738,-29.297,13.184,0.000,0
1601765179.483,-26.855,-31.250,-31.738,3.906,0.000,0
1601765179.487,-9.277,-31.250,-27.832,6.836,0.000,0
1601765179.491,-9.766,-28.320,-24.414,9.766,0.000,0
1601765179.495,-1.465,-26.367,-23.926,13.672,0.000,0
1601765179.498,-7.324,-29.785,-28.320,2.930,0.000,0
1601765179.502,-19.043,-30.273,-32.227,-3.418,0.000,0
1601765179.506,-21.484,-27.344,-31.738,9.277,0.000,0
1601765179.510,-40.039,-27.344,-29.785,14.160,0.000,0
1601765179.514,-40.527,-25.391,-32.227,19.531,0.000,0
1601765179.518,-35.156,-26.367,-31.250,22.949,0.000,0
1601765179.522,-37.598,-27.344,-31.738,19.531,0.000,0
1601765179.526,-26.367,-25.879,-37.598,5.859,0.000,0
1601765179.530,-16.602,-26.367,-33.691,5.859,0.000,0
1601765179.534,-19.043,-27.344,-28.809,7.324,0.000,0
1601765179.538,-23.926,-24.414,-27.344,1.953,0.000,0
1601765179.541,-17.578,-23.438,-28.809,10.254,0.000,0
1601765179.545,-11.230,-23.926,-34.180,-1.465,0.000,0
1601765179.549,-11.230,-23.438,-33.691,-5.859,0.000,0
1601765179.553,-16.113,-21.973,-35.645,-3.906,0.000,0
1601765179.557,-28.809,-22.949,-37.598,-1.953,0.000,0
1601765179.561,-38.574,-29.785,-34.180,0.000,0.000,0
1601765179.565,-38.086,-31.250,-36.133,10.254,0.000,0
1601765179.569,-21.973,-28.809,-38.574,14.648,0.000,0
1601765179.573,-20.508,-32.227,-37.109,-10.742,0.000,0
1601765179.577,-22.949,-35.645,-36.621,-26.367,0.000,0
1601765179.580,-26.855,-32.227,-35.156,-17.578,0.000,0
1601765179.584,-32.227,-28.320,-37.109,8.301,0.000,0
1601765179.588,-23.926,-30.273,-36.133,9.766,0.000,0
1601765179.592,-24.414,-30.762,-32.227,1.465,0.000,0
1601765179.596,-14.160,-27.832,-32.715,-23.438,0.000,0
1601765179.600,-16.113,-28.809,-38.086,-32.715,0.000,0
1601765179.604,-23.926,-31.738,-39.551,-19.531,0.000,0
1601765179.608,-7.812,-31.738,-31.738,-4.883,0.000,0
1601765179.612,-14.160,-32.715,-33.203,-1.465,0.000,0
1601765179.616,-23.926,-31.738,-37.109,-12.207,0.000,0
1601765179.620,-16.602,-30.273,-38.086,-11.719,0.000,0
1601765179.623,-23.438,-28.320,-35.645,-6.348,0.000,0
1601765179.627,-25.391,-26.367,-34.180,-0.977,0.000,0
1601765179.631,-13.184,-25.391,-30.762,0.488,0.000,0
1601765179.635,-18.066,-24.414,-31.250,15.137,0.000,0
1601765179.639,-23.438,-27.832,-30.273,2.930,0.000,0
1601765179.643,-19.043,-28.809,-31.738,-3.418,0.000,0
1601765179.647,-13.672,-28.320,-35.645,7.812,0.000,0
1601765179.651,1.465,-26.855,-34.668,-0.488,0.000,0
1601765179.655,-4.395,-24.902,-34.668,-9.277,0.000,0
1601765179.659,-9.277,-25.879,-32.715,-7.812,0.000,0
1601765179.663,-14.648,-27.344,-34.180,7.324,0.000,0
1601765179.666,-15.137,-21.973,-31.738,14.160,0.000,0
1601765179.670,-5.371,-21.484,-30.762,-0.977,0.000,0
1601765179.674,-12.207,-30.273,-35.156,-20.020,0.000,0
1601765179.678,-23.926,-30.762,-35.645,-23.926,0.000,0
1601765179.682,-18.066,-27.344,-35.645,-7.812,0.000,0
1601765179.686,-19.531,-26.855,-34.180,-4.395,0.000,0
1601765179.690,-18.066,-26.367,-32.227,-5.859,0.000,0
1601765179.694,-5.859,-26.855,-28.320,13.672,0.000,0
1601765179.698,-24.902,-27.344,-24.902,10.742,0.000,0
1601765179.702,-32.715,-29.785,-30.762,2.930,0.000,0
1601765179.705,-25.391,-33.691,-36.621,2.441,0.000,0
1601765179.709,-26.855,-34.180,-33.203,-10.742,0.000,0
1601765179.713,-25.879,-34.180,-33.691,-11.719,0.000,0
1601765179.717,-21.973,-31.250,-30.273,-14.160,0.000,1
1601765179.721,-11.719,-29.785,-24.414,-12.695,0.000,0
1601765179.725,0.000,-30.762,-29.785,1.953,0.000,0
1601765179.729,-18.066,-36.621,-29.785,2.930,0.000,0
1601765179.733,-39.551,-40.039,-29.785,-18.555,0.000,0
1601765179.737,-48.828,-37.598,-34.668,-32.715,0.000,0
1601765179.741,-42.480,-40.527,-34.668,-25.879,0.000,0
1601765179.745,-25.879,-41.992,-30.762,-14.648,0.000,0
1601765179.748,-18.066,-37.598,-29.297,-7.812,0.000,0
1601765179.752,-22.949,-36.133,-25.879,-9.277,0.000,0
1601765179.756,-37.109,-37.598,-28.320,-3.418,0.000,0
1601765179.760,-41.504,-35.156,-36.621,0.488,0.000,0
1601765179.764,-44.434,-37.109,-31.738,-22.949,0.000,0
1601765179.768,-36.133,-37.598,-33.691,-28.320,0.000,0
1601765179.772,-29.297,-33.691,-36.133,-15.625,0.000,0
1601765179.776,-33.691,-32.227,-31.250,-6.836,0.000,0
1601765179.780,-41.504,-34.180,-31.250,-12.207,0.000,0
1601765179.784,-36.621,-39.551,-35.156,-21.973,0.000,0
1601765179.788,-19.043,-35.156,-35.156,-10.254,0.000,0
1601765179.791,-21.973,-30.762,-31.738,-2.441,0.000,0
1601765179.795,-33.203,-35.645,-31.250,-2.930,0.000,0
1601765179.799,-28.320,-40.039,-29.785,-8.301,0.000,0
1601765179.803,-17.090,-36.621,-35.156,-18.066,0.000,0
1601765179.807,-21.484,-33.203,-32.715,-19.531,0.000,0
1601765179.811,-21.484,-33.691,-29.297,-11.230,0.000,0
1601765179.815,-29.785,-35.156,-30.762,-2.930,0.000,0
1601765179.819,-33.203,-29.297,-27.832,-6.348,0.000,0
1601765179.823,-20.508,-27.832,-31.738,2.441,0.000,0
1601765179.827,-22.461,-30.273,-29.785,7.324,0.000,0
1601765179.830,-22.949,-28.809,-28.809,10.254,0.000,0
1601765179.834,-39.062,-30.762,-30.762,1.465,0.000,0
1601765179.838,-46.875,-31.250,-34.180,-20.020,0.000,0
1601765179.842,-40.039,-27.344,-35.645,-9.766,0.000,0
1601765179.846,-46.875,-28.320,-32.715,13.672,0.000,0
1601765179.850,-42.480,-27.832,-26.367,21.484,0.000,0
1601765179.854,-33.203,-26.855,-27.344,5.859,0.000,0
1601765179.858,-28.320,-27.344,-31.250,-4.883,0.000,0
1601765179.862,-23.438,-26.855,-31.250,-3.906,0.000,0
1601765179.866,-24.902,-30.762,-35.645,3.418,0.000,0
1601765179.870,-19.043,-29.297,-36.621,1.465,0.000,0
1601765179.873,-10.742,-25.879,-37.598,-9.766,0.000,0
1601765179.877,-23.438,-24.414,-31.738,-3.906,0.000,0
1601765179.881,-27.344,-27.344,-36.133,-5.371,0.000,0
1601765179.885,-24.902,-31.250,-44.434,-11.230,0.000,0
1601765179.889,-24.902,-31.738,-35.156,2.441,0.000,0
1601765179.893,-21.484,-31.738,-28.809,-10.742,0.000,0
1601765179.897,-24.902,-32.227,-33.691,-21.484,0.000,0
1601765179.901,-29.297,-31.738,-34.180,-6.348,0.000,0
1601765179.905,-34.180,-34.180,-36.621,0.977,0.000,0
1601765179.909,-26.367,-36.133,-32.715,17.090,0.000,0
1601765179.913,-26.855,-33.691,-29.785,8.301,0.000,0
1601765179.916,-51.758,-35.156,-34.668,-22.461,0.000,0
1601765179.920,-57.617,-38.086,-28.320,-25.391,0.000,0
1601765179.924,-53.223,-36.133,-28.320,-11.719,0.000,0
1601765179.928,-39.062,-34.180,-32.227,-6.836,0.000,0
1601765179.932,-30.273,-36.133,-30.762,6.348,0.000,0
1601765179.936,-28.809,-38.086,-31.738,9.277,0.000,0
1601765179.940,-34.668,-41.016,-36.621,7.324,0.000,0
1601765179.944,-39.062,-41.992,-40.039,-5.371,0.000,0
1601765179.948,-29.785,-40.527,-38.086,-22.461,0.000,0
1601765179.952,-16.113,-35.645,-36.621,-7.812,0.000,0
1601765179.955,-14.648,-33.691,-36.133,-0.488,0.000,0
1601765179.959,-19.531,-31.738,-39.551,-7.812,0.000,0
1601765179.963,0.488,-29.785,-38.086,-5.859,0.000,0
1601765179.967,-5.859,-32.715,-35.156,13.184,0.000,0
1601765179.971,-6.348,-29.785,-39.551,12.207,0.000,0
1601765179.975,-8.789,-25.879,-37.109,-2.930,0.000,0
1601765179.979,-32.715,-26.367,-40.527,-11.719,0.000,0
1601765179.983,-36.133,-25.879,-46.387,-13.184,0.000,0
1601765179.987,-26.367,-22.949,-35.156,-20.508,0.000,0
1601765179.991,-25.391,-21.484,-34.180,-20.508,0.000,0
1601765179.995,-34.180,-21.484,-37.109,-11.719,0.000,0
1601765179.998,-41.016,-22.461,-29.297,-4.395,0.000,0
1601765180.002,-44.434,-24.902,-25.391,1.465,0.000,0
1601765180.006,-35.156,-23.926,-27.832,8.789,0.000,0
1601765180.010,-20.996,-23.438,-28.809,15.137,0.000,0
1601765180.014,-4.883,-25.879,-30.273,19.043,0.000,0
1601765180.018,-8.789,-24.902,-30.762,4.395,0.000,0
1601765180.022,-20.996,-24.414,-24.902,-4.395,0.000,0
1601765180.026,-3.906,-29.785,-24.414,1.953,0.000,0
1601765180.030,-4.883,-31.250,-24.902,-5.371,0.000,0
1601765180.034,3.418,-34.180,-24.414,-1.953,0.000,0
1601765180.038,7.812,-32.715,-32.227,1.953,0.000,0
1601765180.041,-4.883,-26.855,-39.062,5.371,0.000,0
1601765180.045,4.395,-25.879,-41.016,0.000,0.000,0
1601765180.049,11.719,-27.344,-34.180,-6.836,0.000,0
1601765180.053,3.906,-32.227,-30.273,0.488,0.000,0
1601765180.057,1.953,-32.227,-36.621,-2.441,0.000,0
1601765180.061,3.418,-29.297,-34.668,-0.977,0.000,0
1601765180.065,2.441,-26.367,-30.762,1.953,0.000,0
1601765180.069,1.953,-24.902,-32.715,-4.883,0.000,0
1601765180.073,-16.113,-26.855,-30.762,-3.906,0.000,0
1601765180.077,-34.180,-28.320,-31.738,0.000,0.000,0
1601765180.080,-45.410,-29.785,-29.785,5.371,0.000,0
1601765180.084,-38.086,-33.203,-22.461,13.184,0.000,0
1601765180.088,-31.738,-29.785,-20.020,10.254,0.000,0
1601765180.092,-45.410,-29.297,-26.367,8.301,0.000,0
1601765180.096,-56.152,-31.250,-31.738,-4.395,0.000,0
1601765180.100,-45.898,-33.691,-35.645,-14.648,0.000,0
1601765180.104,-27.832,-33.691,-32.715,12.207,0.000,0
1601765180.108,-28.809,-28.320,-33.203,16.602,0.000,0
1601765180.112,-22.461,-28.809,-32.715,8.301,0.000,0
1601765180.116,-29.785,-29.297,-29.785,6.348,0.000,0
1601765180.120,-44.922,-31.250,-30.273,2.930,0.000,0
1601765180.123,-36.621,-34.668,-31.738,-0.977,0.000,0
1601765180.127,-29.297,-32.227,-27.344,-10.254,0.000,0
1601765180.131,-33.691,-27.344,-25.391,1.465,0.000,0
1601765180.135,-37.598,-26.367,-30.273,0.977,0.000,0
1601765180.139,-36.621,-28.320,-24.902,-11.719,0.000,0
1601765180.143,-31.738,-30.273,-21.973,-0.977,0.000,0
1601765180.147,-29.785,-30.273,-33.691,2.441,0.000,0
1601765180.151,-28.809,-27.344,-35.645,-6.836,0.000,0
1601765180.155,-31.738,-29.297,-31.250,-16.602,0.000,0
1601765180.159,-42.480,-31.250,-28.809,-12.207,0.000,0
1601765180.163,-56.152,-29.297,-25.391,6.348,0.000,0
1601765180.166,-41.016,-28.809,-25.879,24.902,0.000,0
1601765180.170,-27.344,-28.320,-25.391,18.555,0.000,0
1601765180.174,-25.879,-30.762,-25.391,-0.488,0.000,0
1601765180.178,-20.020,-29.785,-27.832,-0.488,0.000,0
1601765180.182,-26.855,-27.344,-22.461,3.418,0.000,0
1601765180.186,-26.367,-28.320,-16.602,15.137,0.000,0
1601765180.190,-23.926,-26.855,-21.484,2.930,0.000,0
1601765180.194,-29.297,-25.879,-29.297,-6.348,0.000,0
1601765180.198,-30.273,-26.855,-27.344,3.906,0.000,0
1601765180.202,-30.273,-25.391,-21.973,-4.883,0.000,0
1601765180.205,-20.996,-25.391,-32.227,-4.395,0.000,0
1601765180.209,-8.301,-26.855,-35.645,9.766,0.000,0
1601765180.213,-16.602,-27.832,-30.273,4.395,0.000,0
1601765180.217,-30.762,-30.273,-35.156,6.348,0.000,0
1601765180.221,-28.320,-28.809,-35.645,5.859,0.000,0
1601765180.225,-27.344,-29.785,-35.156,-1.953,0.000,0
1601765180.229,-18.555,-30.273,-38.086,-0.977,0.000,0
1601765180.233,-12.207,-30.273,-35.156,-13.184,0.000,0
1601765180.237,-31.738,-33.691,-31.250,-22.461,0.000,0
1601765180.241,-28.320,-29.297,-27.344,-8.301,0.000,0
1601765180.245,-20.508,-26.367,-25.879,9.277,0.000,0
1601765180.248,-22.949,-28.320,-29.785,3.906,0.000,0
1601765180.252,-21.484,-32.715,-31.738,-6.836,0.000,0
1601765180.256,-18.066,-31.250,-29.297,-15.137,0.000,0
1601765180.260,-21.484,-25.879,-25.391,-17.090,0.000,0
1601765180.264,-18.066,-24.902,-29.785,-4.883,0.000,0
1601765180.268,-9.277,-25.391,-33.691,6.836,0.000,0
1601765180.272,-8.789,-27.832,-29.297,5.859,0.000,0
1601765180.276,-21.484,-25.391,-28.320,-9.277,0.000,0
1601765180.280,-34.668,-28.320,-27.344,-12.207,0.000,0
1601765180.284,-24.902,-30.762,-28.809,4.395,0.000,0
1601765180.288,-19.043,-28.320,-33.203,5.859,0.000,0
1601765180.291,-26.855,-32.227,-36.133,-2.441,0.000,0
1601765180.295,-32.715,-33.691,-40.039,-9.277,0.000,0
1601765180.299,-32.227,-32.227,-42.480,-7.324,0.000,0
1601765180.303,-23.926,-32.715,-36.621,7.324,0.000,0
1601765180.307,-13.672,-31.250,-30.762,8.789,0.000,0
1601765180.311,-12.695,-31.738,-30.273,-6.836,0.000,0
1601765180.315,-8.789,-31.250,-29.785,-15.625,0.000,0
1601765180.319,-13.184,-28.809,-24.414,-15.625,0.000,0
1601765180.323,-20.996,-29.297,-27.832,-7.812,0.000,0
1601765180.327,-24.414,-30.273,-35.645,2.930,0.000,0
1601765180.330,-17.578,-25.879,-31.738,-3.906,0.000,0
1601765180.334,-14.648,-24.414,-27.344,0.488,0.000,0
1601765180.338,-29.297,-25.391,-36.133,3.418,0.000,0
1601765180.342,-24.902,-31.738,-42.969,-7.324,0.000,0
1601765180.346,-14.160,-31.738,-38.574,-10.742,0.000,0
1601765180.350,-9.766,-28.320,-37.598,-7.812,0.000,0
1601765180.354,-16.602,-25.879,-37.109,3.906,0.000,0
1601765180.358,-21.484,-25.391,-31.250,1.465,0.000,0
1601765180.362,-21.973,-27.344,-31.738,-5.371,0.000,0
1601765180.366,-22.949,-27.344,-30.273,-2.441,0.000,0
1601765180.370,-23.926,-25.879,-28.320,-4.883,0.000,0
1601765180.373,-29.297,-26.367,-27.344,-2.930,0.000,0
1601765180.377,-20.508,-27.832,-27.832,-14.160,0.000,0
1601765180.381,-25.391,-25.391,-35.156,-19.531,0.000,0
1601765180.385,-24.902,-26.367,-36.133,-20.996,0.000,0
1601765180.389,-14.160,-28.320,-32.715,-14.160,0.000,0
1601765180.393,-19.043,-29.297,-33.691,-5.859,0.000,0
1601765180.397,-21.973,-26.367,-35.645,-4.883,0.000,0
1601765180.401,-20.020,-26.367,-35.645,0.977,0.000,0
1601765180.405,-14.160,-30.762,-32.227,2.441,0.000,0
1601765180.409,-20.508,-32.227,-29.297,2.441,0.000,0
1601765180.413,-10.742,-28.320,-35.156,-2.441,0.000,0
1601765180.416,-16.602,-28.320,-41.504,-17.090,0.000,0
1601765180.420,-50.293,-34.668,-42.480,-17.578,0.000,0
1601765180.424,-44.434,-35.645,-41.504,-7.324,0.000,0
1601765180.428,-26.855,-33.203,-37.598,-1.465,0.000,0
1601765180.432,-23.438,-25.879,-30.273,2.930,0.000,0
1601765180.436,-26.367,-27.344,-28.809,-0.977,0.000,0
1601765180.440,-29.297,-32.715,-31.738,-16.602,0.000,0
1601765180.444,-29.785,-28.809,-33.203,-11.719,0.000,0
1601765180.448,-28.809,-29.297,-32.715,-4.883,0.000,0
1601765180.452,-27.832,-35.156,-33.691,-7.324,0.000,0
1601765180.455,-38.086,-34.180,-33.691,-19.531,0.000,0
1601765180.459,-36.133,-31.250,-37.598,-22.461,0.000,0
1601765180.463,-28.320,-30.273,-34.668,-4.395,0.000,0
1601765180.467,-31.738,-32.715,-30.273,-3.418,0.000,0
1601765180.471,-19.531,-33.203,-33.691,-6.348,0.000,0
1601765180.475,-15.625,-31.250,-36.621,4.395,0.000,0
1601765180.479,-24.414,-31.738,-33.691,10.254,0.000,0
1601765180.483,-26.855,-33.203,-32.715,5.859,0.000,0
1601765180.487,-21.484,-32.715,-39.062,-3.906,0.000,0
1601765180.491,-13.672,-35.156,-34.668,-1.953,0.000,0
1601765180.495,-22.949,-37.598,-29.297,5.859,0.000,0
1601765180.498,-33.691,-36.133,-36.621,-1.465,0.000,0
1601765180.502,-41.016,-32.227,-35.645,4.883,0.000,0
1601765180.506,-36.621,-32.227,-30.762,19.043,0.000,0
1601765180.510,-28.320,-33.203,-29.785,11.719,0.000,0
1601765180.514,-30.273,-34.668,-30.273,10.254,0.000,0
1601765180.518,-26.367,-38.574,-34.668,1.465,0.000,0
1601765180.522,-31.738,-32.227,-35.645,-12.695,0.000,0
1601765180.526,-32.715,-27.344,-32.715,8.789,0.000,0
1601765180.530,-28.320,-28.809,-30.762,22.949,0.000,0
1601765180.534,-27.832,-29.297,-28.320,24.902,0.000,0
1601765180.538,-27.832,-26.367,-25.879,17.090,0.000,0
1601765180.541,-26.367,-27.832,-30.762,0.000,0.000,0
1601765180.545,-16.602,-28.320,-30.273,-2.930,0.000,0
1601765180.549,-12.695,-25.879,-21.973,9.277,0.000,0
1601765180.553,-12.207,-30.762,-18.555,13.672,0.000,0
1601765180.557,-28.320,-35.645,-25.879,7.812,0.000,0
1601765180.561,-29.297,-34.180,-33.203,-4.883,0.000,0
1601765180.565,-22.461,-36.621,-34.180,4.395,0.000,0
1601765180.569,-33.203,-40.527,-34.668,9.277,0.000,0
1601765180.573,-48.340,-42.480,-35.645,-3.906,0.000,0
1601765180.577,-68.848,-43.457,-38.086,-18.066,0.000,0
1601765180.580,-63.477,-40.039,-37.109,-1.953,0.000,0
1601765180.584,-50.781,-41.016,-34.180,9.766,0.000,0
1601765180.588,-33.691,-41.016,-31.738,10.742,0.000,0
1601765180.592,-37.109,-40.039,-27.832,-3.418,0.000,0
1601765180.596,-36.621,-41.992,-29.297,-28.809,0.000,0
1601765180.600,-48.340,-41.504,-34.668,-11.719,0.000,0
1601765180.604,-39.551,-40.527,-35.645,1.953,0.000,0
1601765180.608,-14.648,-40.527,-34.180,0.977,0.000,0
1601765180.612,-28.320,-37.598,-37.109,-16.113,0.000,0
1601765180.616,-49.316,-33.203,-36.621,-22.461,0.000,0
1601765180.620,-45.410,-32.715,-29.297,-10.742,0.000,0
1601765180.623,-35.156,-33.691,-30.762,13.672,0.000,0
1601765180.627,-25.391,-32.715,-27.344,34.668,0.000,0
1601765180.631,-17.090,-33.691,-26.367,8.301,0.000,0
1601765180.635,-24.414,-37.598,-31.738,-16.113,0.000,0
1601765180.639,-28.320,-41.016,-34.668,-5.859,0.000,0
1601765180.643,-24.414,-41.016,-37.109,-4.883,0.000,0
1601765180.647,-30.762,-39.551,-32.715,-3.418,0.000,0
1601765180.651,-33.203,-37.109,-31.250,5.371,0.000,0
1601765180.655,-35.156,-36.621,-34.180,-10.254,0.000,0
1601765180.659,-41.016,-35.645,-35.156,-20.996,0.000,0
1601765180.663,-42.480,-34.180,-39.551,-12.695,0.000,0
1601765180.666,-41.992,-34.668,-42.969,-5.371,0.000,0
1601765180.670,-30.273,-30.762,-41.504,0.000,0.000,0
1601765180.674,-33.203,-29.785,-37.598,3.418,0.000,0
1601765180.678,-44.922,-29.297,-30.762,1.465,0.000,0
1601765180.682,-32.715,-29.297,-35.645,0.000,0.000,0
1601765180.686,-23.438,-28.809,-33.203,-0.488,0.000,0
1601765180.690,-27.832,-28.809,-28.320,-5.859,0.000,0
1601765180.694,-31.738,-30.762,-28.809,-9.766,0.000,0
1601765180.698,-32.715,-26.367,-31.738,0.977,0.000,0
1601765180.702,-39.062,-27.832,-36.133,-4.883,0.000,0
1601765180.705,-25.391,-30.273,-31.250,-2.930,0.000,0
1601765180.709,-10.254,-28.809,-26.855,6.348,0.000,0
1601765180.713,-22.949,-28.320,-31.738,-2.930,0.000,0
1601765180.717,-35.645,-28.809,-33.203,-9.277,0.000,0
1601765180.721,-29.297,-33.691,-34.668,-9.277,0.000,0
1601765180.725,-20.508,-34.180,-35.156,-2.441,0.000,0
1601765180.729,-26.367,-33.203,-30.273,-1.465,0.000,0
1601765180.733,-29.297,-35.645,-31.738,-5.859,0.000,0
1601765180.737,-26.855,-38.574,-37.598,-16.602,0.000,0
1601765180.741,-32.715,-38.574,-32.715,-10.254,0.000,0
1601765180.745,-26.855,-36.133,-32.227,2.930,0.000,0
1601765180.748,-4.395,-35.156,-33.691,2.441,0.000,0
1601765180.752,-20.996,-32.227,-34.668,7.812,0.000,0
1601765180.756,-54.688,-31.250,-35.645,-12.207,0.000,0
1601765180.760,-39.062,-30.273,-33.691,-20.508,0.000,0
1601765180.764,-29.785,-22.949,-34.180,-7.812,0.000,0
1601765180.768,-24.414,-20.996,-35.645,-2.930,0.000,0
1601765180.772,-17.578,-25.391,-34.180,3.418,0.000,0
1601765180.776,-20.996,-26.855,-36.133,-7.812,0.000,0
1601765180.780,-20.020,-30.762,-38.574,-9.277,0.000,0
1601765180.784,-12.207,-31.738,-39.062,8.789,0.000,0
1601765180.788,-16.113,-32.715,-41.016,13.672,0.000,0
1601765180.791,-23.438,-29.785,-35.156,-5.859,0.000,0
1601765180.795,-22.949,-25.879,-32.227,-11.230,0.000,0
1601765180.799,-32.715,-24.414,-34.180,-30.762,0.000,0
1601765180.803,-35.156,-22.949,-34.668,-36.621,0.000,0
1601765180.807,-28.320,-26.367,-38.574,-13.184,0.000,0
1601765180.811,-38.574,-27.832,-35.645,-22.461,0.000,0
1601765180.815,-48.828,-28.809,-31.250,-25.391,0.000,0
1601765180.819,-53.711,-32.227,-33.691,-13.672,0.000,0
1601765180.823,-52.734,-39.551,-27.832,-19.531,0.000,0
1601765180.827,-31.250,-38.574,-25.391,-27.344,0.000,0
1601765180.830,-22.949,-34.668,-37.109,-20.020,0.000,0
1601765180.834,-30.762,-34.180,-37.598,-0.977,0.000,0
1601765180.838,-43.945,-30.762,-31.250,-4.395,0.000,1
1601765180.842,-63.965,-33.691,-35.156,-22.461,0.000,0
1601765180.846,-57.617,-33.691,-34.180,-17.090,0.000,0
1601765180.850,-59.570,-33.203,-31.738,-17.578,0.000,0
1601765180.854,-56.152,-33.203,-35.156,-15.625,0.000,0
1601765180.858,-53.223,-31.738,-36.133,-5.859,0.000,0
1601765180.862,-45.898,-32.227,-34.668,5.859,0.000,0
1601765180.866,-27.344,-27.344,-28.320,12.207,0.000,0
1601765180.870,-16.602,-23.926,-25.391,0.977,0.000,0
1601765180.873,-25.879,-26.855,-30.273,-7.324,0.000,0
1601765180.877,-32.227,-27.832,-32.227,-2.441,0.000,0
1601765180.881,-35.645,-26.855,-31.738,-6.836,0.000,0
1601765180.885,-40.527,-27.832,-28.320,-10.742,0.000,0
1601765180.889,-37.109,-24.414,-24.902,-2.441,0.000,0
1601765180.893,-44.922,-27.344,-29.297,1.465,0.000,0
1601765180.897,-54.688,-35.156,-31.738,-12.695,0.000,0
1601765180.901,-57.617,-33.691,-31.738,-23.926,0.000,0
1601765180.905,-40.527,-32.227,-31.250,-13.184,0.000,0
1601765180.909,-28.809,-36.133,-32.227,-3.906,0.000,0
1601765180.913,-36.133,-36.133,-29.785,-7.324,0.000,0
1601765180.916,-44.922,-35.156,-32.227,-26.367,0.000,0
1601765180.920,-44.434,-33.691,-39.062,-12.207,0.000,0
1601765180.924,-24.902,-28.320,-39.062,1.465,0.000,0
1601765180.928,-18.066,-30.762,-33.203,-11.719,0.000,0
1601765180.932,-24.902,-33.203,-34.180,-12.695,0.000,0
1601765180.936,-25.391,-33.203,-35.645,-5.371,0.000,0
1601765180.940,-26.367,-32.227,-33.691,-4.883,0.000,0
1601765180.944,-20.020,-32.715,-24.902,2.441,0.000,0
1601765180.948,-17.090,-36.133,-23.438,0.488,0.000,0
1601765180.952,-19.531,-34.180,-31.738,-15.137,0.000,0
1601765180.955,-33.203,-32.715,-32.227,-11.230,0.000,0
1601765180.959,-42.480,-31.738,-30.762,-7.812,0.000,0
1601765180.963,-35.645,-33.691,-29.785,-11.719,0.000,0
1601765180.967,-30.762,-35.156,-34.668,-3.906,0.000,0
1601765180.971,-27.832,-35.156,-38.574,-15.625,0.000,0
1601765180.975,-43.945,-32.227,-32.227,-14.160,0.000,0
1601765180.979,-51.270,-33.203,-30.762,-8.789,0.000,0
1601765180.983,-40.039,-39.062,-32.715,-16.602,0.000,0
1601765180.987,-41.992,-39.551,-29.785,-10.254,0.000,0
1601765180.991,-46.875,-34.668,-31.738,-10.742,0.000,0
1601765180.995,-50.781,-33.691,-39.062,-8.789,0.000,0
1601765180.998,-48.340,-39.062,-38.574,-20.508,0.000,0
1601765181.002,-45.410,-39.551,-35.156,-25.879,0.000,0
1601765181.006,-48.828,-34.668,-39.551,-10.742,0.000,0
1601765181.010,-31.738,-35.645,-38.086,4.395,0.000,0
1601765181.014,-25.391,-39.062,-36.621,7.324,0.000,0
1601765181.018,-49.805,-37.598,-37.109,3.418,0.000,0
1601765181.022,-50.781,-34.668,-33.203,-2.441,0.000,0
1601765181.026,-33.691,-32.715,-30.762,0.000,0.000,0
1601765181.030,-23.926,-28.809,-34.668,3.418,0.000,0
1601765181.034,-21.973,-31.250,-33.691,0.000,0.000,0
1601765181.038,-17.090,-35.156,-31.250,1.465,0.000,0
1601765181.041,-15.137,-34.180,-30.762,-3.906,0.000,0
1601765181.045,-20.020,-30.273,-31.250,-0.977,0.000,0
1601765181.049,-19.531,-28.809,-29.785,19.531,0.000,0
1601765181.053,-23.926,-29.297,-32.715,19.531,0.000,0
1601765181.057,-31.250,-28.809,-35.156,1.465,0.000,0
1601765181.061,-40.039,-31.738,-30.762,-1.953,0.000,0
1601765181.065,-29.785,-29.785,-31.250,1.953,0.000,0
1601765181.069,-18.555,-29.297,-36.621,4.395,0.000,0
1601765181.073,-24.902,-31.250,-34.668,10.742,0.000,0
1601765181.077,-39.062,-28.809,-29.785,19.531,0.000,0
1601765181.080,-43.945,-29.785,-30.273,12.695,0.000,0
1601765181.084,-40.039,-32.715,-31.738,4.395,0.000,0
1601765181.088,-25.391,-32.227,-33.691,5.371,0.000,0
1601765181.092,-21.973,-27.344,-31.738,4.395,0.000,0
1601765181.096,-24.902,-25.391,-30.273,11.719,0.000,0
1601765181.100,-26.855,-27.344,-30.762,19.043,0.000,0
1601765181.104,-15.625,-25.391,-29.297,14.648,0.000,0
1601765181.108,-5.859,-21.973,-31.250,-5.371,0.000,0
1601765181.112,3.418,-21.973,-37.109,-8.789,0.000,0
1601765181.116,8.789,-21.484,-35.645,-1.953,0.000,0
1601765181.120,-23.926,-22.461,-34.668,-4.883,0.000,0
1601765181.123,-30.762,-24.902,-35.645,9.766,0.000,0
1601765181.127,-11.719,-27.832,-28.320,5.371,0.000,0
1601765181.131,-14.160,-25.879,-24.414,-5.859,0.000,0
1601765181.135,-23.926,-25.879,-30.273,-6.836,0.000,0
1601765181.139,-39.062,-30.762,-29.785,-7.812,0.000,0
1601765181.143,-41.992,-31.738,-27.832,14.648,0.000,0
1601765181.147,-20.996,-31.250,-29.785,18.555,0.000,0
1601765181.151,-16.113,-31.738,-31.738,0.977,0.000,0
1601765181.155,-36.133,-33.203,-33.691,-26.367,0.000,0
1601765181.159,-31.250,-30.762,-38.574,-37.598,0.000,0
1601765181.163,-16.602,-28.320,-33.203,-16.113,0.000,0
1601765181.166,-18.066,-29.785,-23.438,-0.977,0.000,0
1601765181.170,-10.254,-31.250,-27.344,0.977,0.000,0
1601765181.174,-17.578,-30.273,-30.762,0.488,0.000,0
1601765181.178,-38.086,-33.203,-27.832,3.418,0.000,0
1601765181.182,-44.434,-36.621,-28.320,-6.348,0.000,0
1601765181.186,-48.828,-34.668,-33.691,-17.090,0.000,0
1601765181.190,-29.785,-29.785,-34.180,-6.836,0.000,0
1601765181.194,-16.113,-32.715,-37.109,-9.766,0.000,0
1601765181.198,-25.879,-29.785,-37.109,-26.855,0.000,0
1601765181.202,-34.668,-25.879,-35.156,-11.719,0.000,0
1601765181.205,-22.461,-28.809,-31.738,10.742,0.000,0
1601765181.209,-3.418,-26.367,-31.250,3.418,0.000,0
1601765181.213,2.441,-27.832,-35.156,-10.254,0.000,0
1601765181.217,-11.230,-28.320,-38.574,-5.859,0.000,0
1601765181.221,-35.156,-31.250,-36.621,-2.441,0.000,0
1601765181.225,-37.598,-36.133,-37.109,6.836,0.000,0
1601765181.229,-23.438,-32.227,-33.691,13.184,0.000,0
1601765181.233,-15.137,-29.297,-31.250,4.883,0.000,0
1601765181.237,-19.531,-29.785,-34.668,12.695,0.000,0
1601765181.241,-17.090,-31.250,-35.156,-8.301,0.000,0
1601765181.245,-3.906,-31.738,-37.598,-24.902,0.000,0
1601765181.248,-4.395,-32.227,-37.598,-14.160,0.000,0
1601765181.252,-19.043,-32.227,-37.109,-10.254,0.000,0
1601765181.256,-17.090,-32.227,-31.738,-9.277,0.000,0
1601765181.260,-14.160,-33.691,-29.785,-12.695,0.000,0
1601765181.264,-12.207,-27.832,-30.273,9.766,0.000,0
1601765181.268,-5.371,-26.367,-29.297,21.973,0.000,0
1601765181.272,-19.043,-32.227,-29.297,4.883,0.000,0
1601765181.276,-34.668,-31.250,-27.344,-7.324,0.000,0
1601765181.280,-34.668,-30.273,-24.902,-1.953,0.000,0
1601765181.284,-38.574,-33.203,-24.414,6.348,0.000,0
1601765181.288,-32.715,-33.203,-19.043,12.695,0.000,0
1601765181.291,-32.227,-29.785,-20.020,14.160,0.000,0
1601765181.295,-41.504,-27.832,-23.926,0.977,0.000,0
1601765181.299,-37.598,-24.902,-25.391,-12.695,0.000,0
1601765181.303,-40.527,-25.391,-24.414,-11.719,0.000,0
1601765181.307,-36.133,-27.832,-21.973,-3.418,0.000,0
1601765181.311,-27.832,-22.949,-25.879,4.883,0.000,0
1601765181.315,-45.898,-26.367,-26.855,6.348,0.000,0
1601765181.319,-54.199,-32.227,-34.180,-5.371,0.000,0
1601765181.323,-37.109,-31.250,-36.133,-1.465,0.000,0
1601765181.327,-26.855,-31.738,-30.762,-0.488,0.000,0
1601765181.330,-26.367,-29.785,-28.809,-20.020,0.000,0
1601765181.334,-29.297,-30.273,-30.273,-19.531,0.000,0
1601765181.338,-34.180,-27.344,-33.691,-14.648,0.000,0
1601765181.342,-33.203,-22.461,-31.738,-9.277,0.000,0
1601765181.346,-26.855,-22.949,-33.691,-13.184,0.000,0
1601765181.350,-27.344,-25.879,-33.691,-16.113,0.000,0
1601765181.354,-42.480,-31.738,-30.762,-6.836,0.000,0
1601765181.358,-50.781,-30.273,-32.715,-13.672,0.000,0
1601765181.362,-32.227,-23.926,-23.438,-5.371,0.000,0
1601765181.366,-24.414,-28.809,-22.949,21.973,0.000,0
1601765181.370,-31.738,-31.738,-34.180,5.371,0.000,0
1601765181.373,-31.250,-32.227,-36.621,-11.719,0.000,0
1601765181.377,-40.039,-36.621,-36.621,-8.301,0.000,0
1601765181.381,-39.062,-33.691,-33.691,-10.742,0.000,0
1601765181.385,-21.484,-28.809,-30.762,-4.395,0.000,0
1601765181.389,-20.508,-30.762,-30.273,-6.836,0.000,0
1601765181.393,-41.504,-32.227,-39.551,-23.926,0.000,0
1601765181.397,-46.387,-29.785,-41.504,-25.391,0.000,0
1601765181.401,-41.992,-31.738,-33.691,-16.113,0.000,0
1601765181.405,-36.621,-27.344,-34.180,-9.277,0.000,0
1601765181.409,-27.344,-20.508,-31.250,8.301,0.000,0
1601765181.413,-20.508,-24.902,-33.203,11.719,0.000,0
1601765181.416,-32.227,-33.691,-31.250,4.883,0.000,0
1601765181.420,-39.551,-34.668,-26.367,-4.395,0.000,0
1601765181.424,-23.438,-31.250,-27.344,-9.277,0.000,0
1601765181.428,-24.902,-32.227,-24.414,-0.488,0.000,0
1601765181.432,-28.809,-34.180,-29.785,-6.348,0.000,0
1601765181.436,-41.992,-33.203,-33.203,-16.113,0.000,0
1601765181.440,-57.617,-34.180,-37.598,-12.207,0.000,0
1601765181.444,-61.035,-34.180,-38.574,6.348,0.000,0
1601765181.448,-52.734,-34.180,-26.367,21.973,0.000,0
1601765181.452,-40.039,-40.527,-27.344,13.672,0.000,0
1601765181.455,-41.016,-43.457,-29.785,10.742,0.000,0
1601765181.459,-34.180,-37.598,-27.344,12.207,0.000,0
1601765181.463,-41.992,-35.645,-30.273,11.230,0.000,0
1601765181.467,-53.711,-36.621,-35.645,0.977,0.000,0
1601765181.471,-44.922,-32.715,-31.250,-13.184,0.000,0
1601765181.475,-50.293,-33.203,-26.855,-20.020,0.000,0
1601765181.479,-50.293,-31.738,-25.879,-16.602,0.000,0
1601765181.483,-40.527,-29.785,-27.344,-6.836,0.000,0
1601765181.487,-29.785,-31.738,-32.715,0.977,0.000,0
1601765181.491,-16.602,-32.227,-32.715,7.324,0.000,0
1601765181.495,-14.160,-30.273,-33.691,11.719,0.000,0
1601765181.498,-33.203,-28.809,-29.785,-1.465,0.000,0
1601765181.502,-53.711,-32.227,-25.391,-10.742,0.000,0
1601765181.506,-41.504,-27.832,-26.367,-1.953,0.000,0
1601765181.510,-17.578,-22.949,-30.762,9.766,0.000,0
1601765181.514,-24.414,-31.738,-35.156,1.953,0.000,0
1601765181.518,-35.645,-36.621,-39.551,-21.484,0.000,0
1601765181.522,-27.344,-35.156,-38.086,-23.926,0.000,0
1601765181.526,-21.484,-35.156,-34.668,-14.648,0.000,0
1601765181.530,-16.113,-36.621,-29.785,-10.742,0.000,0
1601765181.534,-20.996,-37.598,-28.809,-4.395,0.000,0
1601765181.538,-30.273,-38.574,-26.855,4.395,0.000,0
1601765181.541,-26.367,-39.551,-23.438,-5.371,0.000,0
1601765181.545,-14.648,-31.738,-25.391,-16.602,0.000,0
1601765181.549,-9.277,-24.902,-28.320,-12.695,0.000,0
1601765181.553,-16.602,-23.926,-33.203,-12.207,0.000,0
1601765181.557,-21.484,-26.855,-34.180,-24.414,0.000,0
1601765181.561,-21.973,-27.832,-33.691,-17.578,0.000,0
1601765181.565,-31.250,-30.273,-33.691,2.930,0.000,0
1601765181.569,-21.973,-31.250,-33.203,-2.441,0.000,0
1601765181.573,-3.906,-23.926,-31.738,-14.160,0.000,0
1601765181.577,-1.953,-22.949,-35.156,-17.578,0.000,0
1601765181.580,-13.672,-26.855,-39.062,-16.113,0.000,0
1601765181.584,-0.488,-23.926,-31.738,2.930,0.000,0
1601765181.588,11.719,-26.367,-35.156,-5.371,0.000,0
1601765181.592,-2.441,-25.879,-33.691,-28.320,0.000,0
1601765181.596,2.930,-19.043,-24.902,-10.254,0.000,0
1601765181.600,5.371,-18.555,-25.391,-0.488,0.000,0
1601765181.604,2.441,-23.926,-27.344,1.953,0.000,0
1601765181.608,7.324,-30.273,-24.902,13.672,0.000,0
1601765181.612,15.625,-32.715,-29.785,3.418,0.000,0
1601765181.616,14.648,-28.809,-30.273,0.488,0.000,0
1601765181.620,6.836,-26.367,-27.344,15.137,0.000,0
1601765181.623,4.395,-22.461,-28.320,21.973,0.000,0
1601765181.627,2.441,-23.438,-27.832,16.602,0.000,0
1601765181.631,0.977,-26.855,-29.297,2.441,0.000,0
1601765181.635,-1.465,-27.832,-31.738,-0.977,0.000,0
1601765181.639,-9.766,-24.414,-33.691,-10.742,0.000,0
1601765181.643,-15.625,-23.926,-34.180,-19.531,0.000,0
1601765181.647,-6.348,-25.391,-33.203,-17.578,0.000,0
1601765181.651,5.859,-27.344,-29.785,-6.348,0.000,0
1601765181.655,0.000,-30.762,-31.250,-0.488,0.000,0
1601765181.659,-13.184,-29.785,-32.715,-11.230,0.000,0
1601765181.663,-3.418,-25.391,-37.109,-6.836,0.000,0
1601765181.666,5.371,-25.391,-38.574,8.789,0.000,0
1601765181.670,-7.324,-27.344,-32.227,2.930,0.000,0
1601765181.674,-9.277,-24.414,-29.297,-11.230,0.000,0
1601765181.678,-13.672,-24.414,-27.832,-5.859,0.000,0
1601765181.682,-11.230,-27.832,-30.273,6.836,0.000,0
1601765181.686,-6.348,-26.367,-31.250,16.602,0.000,0
1601765181.690,-14.648,-27.832,-30.762,13.672,0.000,0
1601765181.694,-19.531,-29.785,-31.250,1.465,0.000,0
1601765181.698,-23.438,-28.809,-31.250,0.488,0.000,0
1601765181.702,-29.297,-34.180,-30.273,3.418,0.000,0
1601765181.705,-21.973,-35.156,-29.297,-3.906,0.000,0
1601765181.709,-12.695,-31.738,-28.320,-2.441,0.000,0
1601765181.713,-17.090,-29.297,-28.809,3.906,0.000,0
1601765181.717,-32.715,-25.391,-28.809,-7.324,0.000,0
1601765181.721,-41.992,-27.344,-32.227,-5.371,0.000,0
1601765181.725,-31.250,-26.367,-37.598,-3.418,0.000,0
1601765181.729,-28.320,-25.879,-39.551,-14.160,0.000,0
1601765181.733,-27.832,-27.832,-36.133,-2.930,0.000,0
1601765181.737,-29.297,-27.344,-33.691,-2.930,0.000,0
1601765181.741,-39.551,-26.367,-34.668,-9.277,0.000,0
1601765181.745,-38.574,-27.344,-30.762,4.883,0.000,0
1601765181.748,-28.809,-27.832,-32.715,8.789,0.000,0
1601765181.752,-34.668,-31.250,-41.504,2.930,0.000,0
1601765181.756,-42.969,-34.180,-39.062,3.906,0.000,0
1601765181.760,-39.062,-31.738,-42.480,7.812,0.000,0
1601765181.764,-20.996,-30.273,-42.969,5.371,0.000,0
1601765181.768,-14.160,-30.273,-34.180,3.418,0.000,0
1601765181.772,-17.090,-25.879,-34.668,-1.953,0.000,0
1601765181.776,-22.461,-24.414,-38.574,-4.883,0.000,0
1601765181.780,-37.109,-25.879,-37.109,0.000,0.000,0
1601765181.784,-40.527,-24.902,-33.203,3.906,0.000,0
1601765181.788,-18.066,-25.391,-30.762,2.930,0.000,0
1601765181.791,-20.508,-26.855,-32.715,-2.930,0.000,0
1601765181.795,-45.410,-27.832,-35.645,-14.160,0.000,0
1601765181.799,-47.363,-31.738,-36.621,-7.324,0.000,0
1601765181.803,-38.574,-37.109,-33.691,4.883,0.000,0
1601765181.807,-32.715,-39.551,-35.156,1.953,0.000,0
1601765181.811,-38.574,-39.551,-38.086,-9.766,0.000,0
1601765181.815,-41.992,-40.039,-43.457,-20.996,0.000,0
1601765181.819,-40.527,-38.574,-44.434,-14.160,0.000,0
1601765181.823,-42.480,-37.109,-37.109,-5.859,0.000,0
1601765181.827,-33.203,-29.785,-32.715,-4.883,0.000,0
1601765181.830,-41.992,-32.227,-35.645,-2.930,0.000,0
1601765181.834,-42.480,-33.203,-40.527,-6.348,0.000,0
1601765181.838,-27.344,-29.297,-32.227,-0.488,0.000,0
1601765181.842,-27.832,-30.762,-28.809,-3.906,0.000,0
1601765181.846,-28.320,-31.738,-30.762,-3.418,0.000,0
1601765181.850,-22.461,-26.855,-27.344,1.465,0.000,0
1601765181.854,-27.832,-24.414,-22.461,0.000,0.000,0
1601765181.858,-18.555,-29.297,-26.855,-20.020,0.000,0
1601765181.862,-16.113,-24.414,-36.621,-23.438,0.000,0
1601765181.866,-13.184,-22.949,-31.250,7.324,0.000,0
1601765181.870,-16.113,-26.855,-26.367,1.953,0.000,0
1601765181.873,-19.043,-28.320,-33.203,-16.602,0.000,0
1601765181.877,-12.207,-28.809,-31.250,15.137,0.000,0
1601765181.881,-11.230,-27.344,-24.902,23.438,0.000,0
1601765181.885,6.836,-23.926,-26.367,0.977,0.000,0
1601765181.889,0.000,-25.879,-30.273,-3.418,0.000,0
1601765181.893,-21.973,-29.785,-33.203,-14.160,0.000,0
1601765181.897,-16.602,-30.762,-35.156,-19.043,0.000,0
1601765181.901,-13.672,-33.203,-31.738,-4.883,0.000,0
1601765181.905,-3.418,-36.133,-28.320,1.953,0.000,0
1601765181.909,1.465,-35.645,-31.738,-0.977,0.000,0
1601765181.913,-11.719,-34.668,-33.691,4.883,0.000,0
1601765181.916,-23.926,-35.645,-34.668,-0.488,0.000,0
1601765181.920,-25.391,-34.180,-35.156,-6.836,0.000,0
1601765181.924,-16.602,-29.297,-33.203,3.906,0.000,0
1601765181.928,-11.230,-28.809,-27.344,1.465,0.000,0
1601765181.932,-16.113,-27.832,-25.391,-10.742,0.000,0
1601765181.936,-16.113,-20.996,-31.250,-3.418,0.000,0
1601765181.940,-10.254,-22.949,-30.762,10.254,0.000,0
1601765181.944,-9.766,-32.227,-33.691,20.996,0.000,0
1601765181.948,-7.324,-33.691,-33.691,12.207,0.000,0
1601765181.952,-8.301,-29.297,-25.391,-0.977,0.000,0
1601765181.955,-13.184,-26.855,-27.344,-9.277,0.000,0
1601765181.959,-23.438,-26.367,-36.133,-13.184,0.000,0
1601765181.963,-20.508,-23.438,-31.250,6.348,0.000,0
1601765181.967,-21.484,-26.855,-33.691,-5.859,0.000,0
1601765181.971,-33.691,-32.715,-38.086,-30.273,0.000,0
1601765181.975,-36.621,-29.297,-33.203,-26.367,0.000,0
1601765181.979,-32.715,-23.926,-31.738,-17.578,0.000,0
1601765181.983,-19.531,-18.555,-32.227,-12.207,0.000,0
1601765181.987,-21.484,-20.508,-30.273,-3.906,0.000,0
1601765181.991,-30.762,-23.438,-33.203,1.953,0.000,0
1601765181.995,-47.363,-25.391,-36.621,-9.277,0.000,0
1601765181.998,-50.781,-33.203,-38.086,-3.906,0.000,0
1601765182.002,-40.039,-34.668,-39.062,6.836,0.000,0
1601765182.006,-37.109,-31.250,-37.598,-10.254,0.000,0
1601765182.010,-41.016,-33.691,-34.180,-20.508,0.000,0
1601765182.014,-37.598,-32.715,-34.180,-14.648,0.000,0
1601765182.018,-28.809,-31.738,-37.109,-14.648,0.000,0
1601765182.022,-33.203,-32.715,-34.668,-18.066,0.000,0
1601765182.026,-40.527,-29.297,-33.203,-4.883,0.000,0
1601765182.030,-38.574,-29.297,-33.203,-7.324,0.000,0
1601765182.034,-27.832,-31.738,-34.180,-11.719,0.000,0
1601765182.038,-35.156,-28.320,-37.598,-9.277,0.000,0
1601765182.041,-45.898,-32.715,-40.039,-19.043,0.000,1
1601765182.045,-45.898,-33.203,-39.551,-16.602,0.000,0
1601765182.049,-55.176,-26.367,-34.180,-21.484,0.000,0
1601765182.053,-55.176,-26.367,-32.715,-25.879,0.000,0
1601765182.057,-43.945,-29.785,-36.133,-12.695,0.000,0
1601765182.061,-40.527,-33.203,-39.551,-17.090,0.000,0
1601765182.065,-30.762,-35.645,-38.574,-9.766,0.000,0
1601765182.069,-31.738,-31.738,-34.180,4.883,0.000,0
1601765182.073,-41.504,-30.762,-32.715,-3.906,0.000,0
1601765182.077,-42.480,-36.133,-32.227,-17.578,0.000,0
1601765182.080,-47.363,-37.598,-31.738,-21.973,0.000,0
1601765182.084,-36.621,-34.668,-34.668,-6.836,0.000,0
1601765182.088,-30.273,-33.691,-36.621,-7.324,0.000,0
1601765182.092,-46.387,-38.574,-35.645,-14.160,0.000,0
1601765182.096,-50.781,-36.133,-36.133,-12.695,0.000,0
1601765182.100,-52.246,-30.762,-36.133,-19.043,0.000,0
1601765182.104,-44.434,-29.785,-32.715,-5.371,0.000,0
1601765182.108,-31.738,-24.902,-28.320,-2.930,0.000,0
1601765182.112,-30.273,-25.879,-30.762,-19.531,0.000,0
1601765182.116,-37.598,-26.855,-34.668,-18.555,0.000,0
1601765182.120,-33.691,-22.461,-34.180,-13.672,0.000,0
1601765182.123,-15.625,-21.973,-34.180,-3.418,0.000,0
1601765182.127,-12.207,-21.484,-31.250,3.418,0.000,0
1601765182.131,-10.254,-20.996,-26.367,-1.953,0.000,0
1601765182.135,-13.184,-19.531,-27.344,-10.254,0.000,0
1601765182.139,-37.598,-22.949,-32.715,-1.953,0.000,0
1601765182.143,-43.457,-26.855,-33.691,3.418,0.000,0
1601765182.147,-24.414,-26.855,-33.691,-5.859,0.000,0
1601765182.151,-37.598,-31.250,-39.551,-11.230,0.000,0
1601765182.155,-62.988,-31.250,-40.039,-13.672,0.000,0
1601765182.159,-59.082,-25.391,-33.691,-13.184,0.000,0
1601765182.163,-50.293,-27.832,-34.180,-15.625,0.000,0
1601765182.166,-31.738,-31.250,-35.645,1.953,0.000,0
1601765182.170,-14.160,-27.344,-38.086,14.648,0.000,0
1601765182.174,-28.320,-25.879,-38.086,-12.207,0.000,0
1601765182.178,-39.551,-28.809,-39.551,-31.738,0.000,0
1601765182.182,-39.062,-31.738,-41.504,-20.020,0.000,0
1601765182.186,-37.109,-30.273,-39.551,-15.137,0.000,0
1601765182.190,-30.762,-30.273,-33.691,-13.672,0.000,0
1601765182.194,-33.203,-29.785,-36.621,-6.348,0.000,0
1601765182.198,-39.062,-27.344,-37.598,-8.789,0.000,0
1601765182.202,-43.945,-26.855,-36.621,6.348,0.000,0
1601765182.205,-28.320,-25.391,-36.621,9.766,0.000,0
1601765182.209,-20.508,-29.297,-28.320,-5.371,0.000,0
1601765182.213,-25.879,-31.738,-29.785,-13.672,0.000,0
1601765182.217,-27.832,-29.785,-34.180,-27.832,0.000,0
1601765182.221,-25.879,-27.832,-32.715,-14.648,0.000,0
1601765182.225,-28.320,-31.250,-31.250,-10.742,0.000,0
1601765182.229,-13.184,-32.715,-26.855,-13.184,0.000,0
1601765182.233,-5.371,-32.715,-28.809,-12.207,0.000,0
1601765182.237,-4.395,-31.738,-35.645,-4.883,0.000,0
1601765182.241,-10.254,-29.785,-37.109,0.488,0.000,0
1601765182.245,-16.113,-30.273,-34.180,7.324,0.000,0
1601765182.248,-9.277,-31.250,-31.250,10.742,0.000,0
1601765182.252,-13.184,-32.227,-33.691,-4.395,0.000,0
1601765182.256,-8.301,-29.297,-35.645,-15.625,0.000,0
1601765182.260,-26.367,-30.762,-31.738,-14.648,0.000,0
1601765182.264,-31.250,-35.156,-33.691,-19.043,0.000,0
1601765182.268,4.883,-34.180,-35.156,-13.672,0.000,0
1601765182.272,5.859,-34.180,-37.109,-6.836,0.000,0
1601765182.276,-8.789,-37.598,-34.668,-14.648,0.000,0
1601765182.280,1.953,-35.645,-23.926,6.348,0.000,0
1601765182.284,-0.488,-37.109,-26.855,31.738,0.000,0
1601765182.288,-8.789,-38.574,-34.668,20.020,0.000,0
1601765182.291,0.488,-35.645,-32.227,11.230,0.000,0
1601765182.295,8.301,-32.227,-33.691,10.742,0.000,0
1601765182.299,-12.207,-31.738,-31.250,-6.836,0.000,0
1601765182.303,-15.137,-30.762,-27.832,0.488,0.000,0
1601765182.307,2.441,-26.367,-29.297,12.207,0.000,0
1601765182.311,0.977,-26.855,-34.668,17.578,0.000,0
1601765182.315,-9.766,-32.715,-35.156,11.230,0.000,0
1601765182.319,-18.066,-33.691,-29.297,11.230,0.000,0
1601765182.323,-16.602,-35.645,-26.855,15.625,0.000,0
1601765182.327,-11.719,-36.133,-31.250,17.090,0.000,0
1601765182.330,2.930,-36.621,-33.691,24.902,0.000,0
1601765182.334,13.672,-37.598,-33.691,12.207,0.000,0
1601765182.338,-15.625,-35.645,-33.691,6.348,0.000,0
1601765182.342,-14.648,-37.109,-35.156,3.906,0.000,0
1601765182.346,-1.465,-34.180,-37.598,-1.953,0.000,0
1601765182.350,-5.371,-30.762,-41.992,-4.395,0.000,0
1601765182.354,-3.418,-31.250,-43.945,-15.137,0.000,0
1601765182.358,-5.371,-32.227,-41.504,-10.254,0.000,0
1601765182.362,0.000,-36.133,-41.016,-4.395,0.000,0
1601765182.366,-0.977,-34.668,-41.504,-6.836,0.000,0
1601765182.370,4.395,-31.250,-37.598,-6.836,0.000,0
1601765182.373,6.836,-35.156,-36.621,-10.742,0.000,0
1601765182.377,-25.879,-36.621,-40.527,-18.555,0.000,0
1601765182.381,-36.133,-38.086,-40.527,-23.926,0.000,0
1601765182.385,-29.297,-37.598,-41.016,-15.625,0.000,0
1601765182.389,-22.461,-30.762,-36.621,-2.930,0.000,0
1601765182.393,-23.438,-27.344,-31.250,-0.488,0.000,0
1601765182.397,-20.508,-24.902,-30.273,-17.578,0.000,0
1601765182.401,-26.367,-28.320,-29.785,-17.578,0.000,0
1601765182.405,-7.812,-33.691,-37.109,-4.395,0.000,0
1601765182.409,1.953,-31.738,-43.457,-18.066,0.000,0
1601765182.413,-14.160,-31.250,-38.086,-26.367,0.000,0
1601765182.416,-14.160,-30.273,-33.203,-21.973,0.000,0
1601765182.420,-14.648,-28.809,-32.715,-17.090,0.000,0
1601765182.424,-4.883,-25.391,-28.809,-11.230,0.000,0
1601765182.428,-8.789,-27.344,-29.297,-17.090,0.000,0
1601765182.432,-28.809,-31.250,-32.227,-25.879,0.000,0
1601765182.436,-37.109,-28.809,-32.715,-37.109,0.000,0
1601765182.440,-54.688,-25.879,-24.902,-38.086,0.000,0
1601765182.444,-50.781,-26.367,-20.996,-20.508,0.000,0
1601765182.448,-27.832,-26.855,-25.879,-13.184,0.000,0
1601765182.452,-33.203,-28.809,-23.926,-35.156,0.000,0
1601765182.455,-56.152,-25.879,-22.949,-51.758,0.000,0
1601765182.459,-81.543,-27.344,-29.297,-49.805,0.000,0
1601765182.463,-78.613,-28.809,-24.902,-48.340,0.000,0
1601765182.467,-72.266,-25.391,-19.043,-47.363,0.000,0
1601765182.471,-76.172,-26.855,-22.949,-53.711,0.000,0
1601765182.475,-87.402,-23.926,-27.344,-59.570,0.000,0
1601765182.479,-97.168,-21.973,-25.879,-59.082,0.000,0
1601765182.483,-84.473,-24.902,-23.926,-49.316,0.000,0
1601765182.487,-66.406,-24.902,-22.461,-35.156,0.000,0
1601765182.491,-50.293,-24.902,-23.438,-28.809,0.000,0
1601765182.495,-48.828,-29.785,-24.902,-33.691,0.000,0
1601765182.498,-55.664,-33.691,-25.391,-32.227,0.000,0
1601765182.502,-47.852,-32.227,-25.391,-18.066,0.000,0
1601765182.506,-42.969,-35.645,-29.297,-7.324,0.000,0
1601765182.510,-42.480,-41.992,-33.691,-5.371,0.000,0
1601765182.514,-48.828,-40.527,-33.691,-2.930,0.000,0
1601765182.518,-42.480,-39.062,-36.133,-13.184,0.000,0
1601765182.522,-30.273,-39.062,-34.668,-11.719,0.000,0
1601765182.526,-17.578,-31.738,-32.227,11.230,0.000,0
1601765182.530,-3.906,-34.668,-29.297,20.508,0.000,0
1601765182.534,-4.395,-35.156,-27.832,31.738,0.000,0
1601765182.538,-4.395,-28.320,-27.344,38.086,0.000,0
1601765182.541,5.371,-27.832,-25.879,37.109,0.000,0
1601765182.545,13.672,-24.902,-25.879,30.762,0.000,0
1601765182.549,15.137,-26.367,-30.273,25.391,0.000,0
1601765182.553,22.949,-29.785,-32.227,29.297,0.000,0
1601765182.557,7.324,-32.227,-30.273,7.812,0.000,0
1601765182.561,4.883,-33.203,-30.762,-5.859,0.000,0
1601765182.565,17.090,-31.250,-33.203,9.277,0.000,0
1601765182.569,17.578,-29.785,-29.297,29.297,0.000,0
1601765182.573,18.555,-30.273,-28.809,30.762,0.000,0
1601765182.577,15.137,-26.367,-34.668,26.367,0.000,0
1601765182.580,0.000,-26.367,-31.250,26.367,0.000,0
1601765182.584,7.324,-30.762,-27.832,30.762,0.000,0
1601765182.588,10.742,-32.227,-30.273,42.969,0.000,0
1601765182.592,16.113,-31.738,-29.297,34.668,0.000,0
1601765182.596,16.602,-28.320,-25.391,23.926,0.000,0
1601765182.600,2.930,-25.879,-30.762,17.578,0.000,0
1601765182.604,23.926,-29.297,-36.133,17.090,0.000,0
1601765182.608,29.297,-31.738,-33.203,24.902,0.000,0
1601765182.612,14.648,-31.738,-35.156,11.230,0.000,0
1601765182.616,2.930,-31.250,-32.715,10.742,0.000,0
1601765182.620,-9.766,-32.715,-28.320,18.066,0.000,0
1601765182.623,-2.930,-31.250,-30.762,9.277,0.000,0
1601765182.627,2.930,-28.809,-28.320,8.301,0.000,0
1601765182.631,11.719,-26.855,-31.738,1.953,0.000,0
1601765182.635,10.254,-24.902,-39.551,-1.953,0.000,0
1601765182.639,9.277,-25.391,-34.668,-1.465,0.000,0
1601765182.643,12.695,-20.508,-26.855,-1.465,0.000,0
1601765182.647,8.789,-19.531,-27.832,2.441,0.000,0
1601765182.651,9.277,-22.461,-35.645,4.395,0.000,0
1601765182.655,7.812,-17.578,-37.109,1.465,0.000,0
1601765182.659,-6.348,-13.184,-19.043,5.371,0.000,0
1601765182.663,-20.020,-16.113,-18.555,14.160,0.000,0
1601765182.666,-24.414,-18.555,-29.785,-1.465,0.000,0
1601765182.670,-26.367,-26.855,-34.180,-23.438,0.000,0
1601765182.674,-41.016,-30.273,-21.973,-37.598,0.000,0
1601765182.678,-66.406,-22.461,-6.348,-51.758,0.000,0
1601765182.682,-71.289,-26.367,-23.438,-59.570,0.000,0
1601765182.686,-72.266,-21.484,-27.832,-79.590,0.000,0
1601765182.690,-106.445,-19.043,-26.367,-108.887,0.000,0
1601765182.694,-130.859,-12.695,-15.625,-135.254,0.000,0
1601765182.698,-148.926,-9.277,-14.160,-145.508,0.000,0
1601765182.702,-173.828,-13.184,-18.555,-148.438,0.000,0
1601765182.705,-175.781,-9.277,-7.324,-166.504,0.000,0
1601765182.709,-199.219,-11.719,-14.648,-199.707,0.000,0
1601765182.713,-229.492,-10.742,-23.926,-230.469,0.000,0
1601765182.717,-239.746,-5.859,-23.438,-247.559,0.000,0
1601765182.721,-270.996,-2.930,-18.066,-261.719,0.000,0
1601765182.725,-288.574,-3.906,-19.531,-263.672,0.000,0
1601765182.729,-271.973,-5.371,-23.438,-261.719,0.000,0
1601765182.733,-254.395,-9.766,-18.066,-261.230,0.000,0
1601765182.737,-255.859,-8.301,-19.043,-271.973,0.000,0
1601765182.741,-269.043,-11.719,-20.996,-264.648,0.000,0
1601765182.745,-252.930,-18.066,-19.531,-242.188,0.000,0
1601765182.748,-231.934,-11.230,-10.254,-218.262,0.000,0
1601765182.752,-212.402,-0.977,-22.461,-202.637,0.000,0
1601765182.756,-195.801,-2.930,-38.086,-199.219,0.000,0
1601765182.760,-200.684,-10.254,-41.992,-181.152,0.000,0
1601765182.764,-183.594,-15.137,-39.062,-163.574,0.000,0
1601765182.768,-155.762,-15.625,-22.949,-146.484,0.000,0
1601765182.772,-142.090,-20.996,-20.508,-119.629,0.000,0
1601765182.776,-126.465,-22.949,-24.414,-88.867,0.000,0
1601765182.780,-112.793,-28.809,-32.715,-73.730,0.000,0
1601765182.784,-82.031,-36.133,-32.227,-58.105,0.000,0
1601765182.788,-59.082,-35.645,-31.738,-23.438,0.000,0
1601765182.791,-46.387,-38.086,-36.621,1.465,0.000,0
1601765182.795,-16.602,-37.598,-39.551,9.277,0.000,0
1601765182.799,-15.137,-39.062,-41.016,26.367,0.000,0
1601765182.803,-11.719,-44.434,-42.480,41.992,0.000,0
1601765182.807,10.254,-45.410,-42.480,56.152,0.000,0
1601765182.811,16.602,-44.434,-45.410,71.289,0.000,0
1601765182.815,21.973,-49.805,-51.758,66.406,0.000,0
1601765182.819,18.555,-51.270,-48.340,67.871,0.000,0
1601765182.823,27.344,-53.711,-49.805,78.613,0.000,0
1601765182.827,52.246,-57.617,-53.711,76.172,0.000,0
1601765182.830,55.664,-53.223,-49.316,78.125,0.000,0
1601765182.834,69.336,-45.410,-47.852,89.844,0.000,0
1601765182.838,59.082,-44.922,-49.805,96.680,0.000,0
1601765182.842,42.480,-48.828,-50.293,93.750,0.000,0
1601765182.846,57.617,-44.922,-44.434,94.727,0.000,0
1601765182.850,61.523,-46.387,-47.363,91.309,0.000,0
1601765182.854,64.941,-45.898,-50.781,83.984,0.000,0
1601765182.858,61.523,-41.992,-48.828,90.332,0.000,0
1601765182.862,67.383,-40.527,-49.316,94.727,0.000,0
1601765182.866,83.496,-41.992,-43.945,96.680,0.000,0
1601765182.870,85.938,-42.969,-42.969,91.797,0.000,0
1601765182.873,76.172,-42.969,-50.781,89.355,0.000,0
1601765182.877,60.059,-42.969,-47.852,81.055,0.000,0
1601765182.881,65.918,-42.480,-38.086,93.750,0.000,0
1601765182.885,82.520,-41.992,-37.109,98.145,0.000,0
1601765182.889,89.844,-41.504,-35.156,85.449,0.000,0
1601765182.893,84.961,-43.457,-34.668,86.914,0.000,0
1601765182.897,77.148,-44.922,-36.133,80.566,0.000,0
1601765182.901,59.082,-45.898,-34.668,91.797,0.000,0
1601765182.905,48.340,-43.945,-35.156,83.984,0.000,0
1601765182.909,49.316,-43.457,-30.762,75.684,0.000,0
1601765182.913,52.734,-38.086,-25.879,85.938,0.000,0
1601765182.916,57.129,-34.668,-32.227,64.941,0.000,0
1601765182.920,50.781,-37.598,-32.227,51.758,0.000,0
1601765182.924,43.945,-34.180,-23.438,69.336,0.000,0
1601765182.928,49.316,-33.203,-23.438,82.031,0.000,0
1601765182.932,39.062,-41.992,-30.762,74.219,0.000,0
1601765182.936,37.598,-44.434,-37.109,61.035,0.000,0
1601765182.940,33.691,-37.598,-40.527,53.223,0.000,0
1601765182.944,20.508,-36.133,-33.203,55.664,0.000,0
1601765182.948,12.695,-39.551,-27.344,56.641,0.000,0
1601765182.952,18.066,-43.457,-25.391,53.223,0.000,0
1601765182.955,26.367,-37.598,-20.020,57.129,0.000,0
1601765182.959,15.137,-35.156,-20.020,47.852,0.000,0
1601765182.963,22.461,-36.621,-29.297,39.062,0.000,0
1601765182.967,35.156,-36.133,-25.879,46.875,0.000,0
1601765182.971,26.855,-36.621,-21.484,47.852,0.000,0
1601765182.975,29.297,-36.133,-27.344,44.922,0.000,0
1601765182.979,19.531,-36.133,-25.879,33.691,0.000,0
1601765182.983,19.531,-32.715,-27.344,45.410,0.000,0
1601765182.987,40.527,-27.344,-32.715,58.105,0.000,0
1601765182.991,41.504,-23.926,-29.297,46.387,0.000,0
1601765182.995,33.203,-20.508,-27.344,48.340,0.000,0
1601765182.998,13.184,-20.996,-27.344,41.504,0.000,0
1601765183.002,2.441,-22.949,-26.367,45.898,0.000,0
1601765183.006,8.301,-25.391,-24.902,57.617,0.000,0
1601765183.010,11.230,-30.762,-28.320,41.992,0.000,0
1601765183.014,3.418,-36.621,-34.180,17.578,0.000,0
1601765183.018,-1.953,-37.598,-32.715,12.695,0.000,0
1601765183.022,2.441,-32.227,-34.668,13.184,0.000,0
1601765183.026,10.254,-30.762,-39.062,13.672,0.000,0
1601765183.030,20.020,-33.203,-34.668,25.391,0.000,0
1601765183.034,-3.418,-33.203,-28.809,22.461,0.000,0
1601765183.038,-18.555,-32.715,-27.832,12.695,0.000,0
1601765183.041,-9.277,-34.668,-29.297,1.953,0.000,0
1601765183.045,-15.625,-32.227,-28.809,12.695,0.000,0
1601765183.049,-10.742,-27.344,-34.180,33.203,0.000,0
1601765183.053,-14.160,-30.273,-39.062,19.043,0.000,0
1601765183.057,-20.996,-28.809,-37.109,1.465,0.000,0
1601765183.061,-17.090,-26.367,-37.598,6.348,0.000,0
1601765183.065,-11.719,-27.832,-37.109,-2.930,0.000,0
1601765183.069,-5.859,-27.832,-33.691,-1.465,0.000,0
1601765183.073,-3.906,-26.367,-35.156,8.301,0.000,0
1601765183.077,-5.371,-26.367,-34.668,0.488,0.000,0
1601765183.080,-3.906,-28.809,-31.250,18.066,0.000,0
1601765183.084,10.254,-30.273,-34.180,22.949,0.000,0
1601765183.088,17.090,-33.691,-36.133,14.160,0.000,0
1601765183.092,10.742,-35.156,-34.180,8.301,0.000,0
1601765183.096,-0.977,-32.715,-34.180,2.441,0.000,0
1601765183.100,-15.137,-29.785,-29.785,3.418,0.000,0
1601765183.104,-5.859,-27.832,-30.762,9.277,0.000,0
1601765183.108,12.207,-26.855,-33.691,12.207,0.000,0
1601765183.112,6.836,-26.367,-31.250,-4.883,0.000,0
1601765183.116,-7.812,-28.809,-36.133,-5.371,0.000,0
1601765183.120,-13.184,-32.715,-37.109,-2.441,0.000,0
1601765183.123,-0.977,-37.109,-37.598,-3.906,0.000,0
1601765183.127,13.184,-32.227,-36.133,5.859,0.000,0
1601765183.131,1.953,-25.879,-35.156,12.695,0.000,0
1601765183.135,-22.461,-30.762,-35.645,18.555,0.000,0
1601765183.139,-27.832,-34.180,-32.227,7.812,0.000,2
1601765183.143,-17.090,-31.738,-31.250,4.395,0.000,0
1601765183.147,-12.207,-30.762,-32.715,6.348,0.000,0
1601765183.151,-9.277,-28.809,-35.156,-11.719,0.000,0
1601765183.155,-19.043,-29.297,-35.645,-29.297,0.000,0
1601765183.159,-40.039,-30.762,-36.621,-24.902,0.000,0
1601765183.163,-29.785,-28.809,-38.574,-5.859,0.000,0
1601765183.166,-24.414,-30.762,-33.691,0.000,0.000,0
1601765183.170,-36.621,-35.156,-32.227,-3.418,0.000,0
1601765183.174,-34.180,-31.250,-31.250,-4.395,0.000,0
1601765183.178,-32.227,-25.879,-28.320,8.301,0.000,0
1601765183.182,-36.133,-27.344,-31.250,7.812,0.000,0
1601765183.186,-39.062,-33.691,-39.062,-7.812,0.000,0
1601765183.190,-34.668,-37.109,-36.621,-13.672,0.000,0
1601765183.194,-27.832,-38.086,-32.715,-16.602,0.000,0
1601765183.198,-38.086,-31.738,-35.156,-17.578,0.000,0
1601765183.202,-45.898,-29.297,-29.785,-18.066,0.000,0
1601765183.205,-23.438,-27.832,-22.949,-14.648,0.000,0
1601765183.209,-16.113,-25.879,-29.785,-9.277,0.000,0
1601765183.213,-31.250,-28.320,-31.738,1.465,0.000,0
1601765183.217,-39.551,-29.297,-27.832,-6.836,0.000,0
1601765183.221,-38.086,-30.273,-27.832,-21.973,0.000,0
1601765183.225,-29.785,-31.250,-33.691,-0.488,0.000,0
1601765183.229,-18.555,-31.250,-27.344,8.789,0.000,0
1601765183.233,-17.090,-29.297,-25.879,-8.789,0.000,0
1601765183.237,-31.250,-30.273,-38.574,-17.578,0.000,0
1601765183.241,-43.457,-33.203,-39.062,-4.395,0.000,0
1601765183.245,-40.527,-30.762,-34.668,-0.488,0.000,0
1601765183.248,-33.691,-27.344,-37.598,-4.883,0.000,0
1601765183.252,-33.203,-27.344,-33.203,-13.184,0.000,0
1601765183.256,-46.875,-27.344,-29.785,-15.625,0.000,0
1601765183.260,-50.293,-26.855,-31.738,-5.859,0.000,0
1601765183.264,-49.805,-25.879,-32.227,-10.254,0.000,0
1601765183.268,-46.387,-28.809,-31.250,-13.184,0.000,0
1601765183.272,-32.227,-31.738,-34.668,-8.301,0.000,0
1601765183.276,-43.457,-34.180,-38.574,-26.855,0.000,0
1601765183.280,-64.453,-39.062,-36.133,-23.926,0.000,0
1601765183.284,-50.293,-38.086,-41.992,-19.043,0.000,0
1601765183.288,-45.410,-35.156,-39.551,-14.648,0.000,0
1601765183.291,-47.363,-35.645,-34.180,10.254,0.000,0
1601765183.295,-43.457,-36.133,-37.109,-10.742,0.000,0
1601765183.299,-62.012,-37.109,-33.691,-33.691,0.000,0
1601765183.303,-63.477,-36.133,-30.273,-23.926,0.000,0
1601765183.307,-38.086,-30.762,-30.273,-22.949,0.000,0
1601765183.311,-38.086,-30.273,-32.227,-16.602,0.000,0
1601765183.315,-44.434,-35.645,-39.551,-14.160,0.000,0
1601765183.319,-47.852,-38.086,-43.457,-21.484,0.000,0
1601765183.323,-46.387,-38.574,-45.898,-9.277,0.000,0
1601765183.327,-39.551,-32.715,-42.480,2.930,0.000,0
1601765183.330,-32.227,-32.227,-30.762,-17.578,0.000,0
1601765183.334,-35.645,-36.621,-32.227,-19.531,0.000,0
1601765183.338,-39.551,-37.598,-35.645,-5.859,0.000,0
1601765183.342,-24.902,-32.227,-28.809,7.812,0.000,0
1601765183.346,-28.809,-31.738,-25.391,23.438,0.000,0
1601765183.350,-39.062,-36.133,-27.344,1.953,0.000,0
1601765183.354,-50.293,-34.180,-34.668,-30.762,0.000,0
1601765183.358,-61.035,-30.273,-30.273,-31.250,0.000,0
1601765183.362,-52.734,-25.879,-24.902,-17.090,0.000,0
1601765183.366,-35.645,-28.809,-26.367,-10.254,0.000,0
1601765183.370,-38.574,-31.738,-31.738,-12.695,0.000,0
1601765183.373,-53.223,-33.691,-34.668,-17.090,0.000,0
1601765183.377,-50.293,-33.203,-27.832,-17.578,0.000,0
1601765183.381,-39.551,-30.762,-27.344,-13.184,0.000,0
1601765183.385,-37.109,-30.273,-30.762,0.000,0.000,0
1601765183.389,-21.973,-30.762,-25.391,-8.301,0.000,0
1601765183.393,-28.809,-30.762,-24.902,-26.855,0.000,0
1601765183.397,-31.250,-26.855,-30.762,-16.113,0.000,0
1601765183.401,-29.297,-22.949,-33.203,-9.277,0.000,0
1601765183.405,-32.715,-22.949,-30.762,0.000,0.000,0
1601765183.409,-27.344,-25.391,-31.250,9.277,0.000,0
1601765183.413,-26.367,-25.391,-31.738,-6.348,0.000,0
1601765183.416,-34.668,-24.902,-28.320,-18.555,0.000,0
1601765183.420,-34.668,-26.367,-29.297,-11.230,0.000,0
1601765183.424,-26.855,-28.320,-29.297,-1.953,0.000,0
1601765183.428,-26.855,-28.809,-27.832,-2.441,0.000,0
1601765183.432,-25.391,-24.902,-25.391,4.395,0.000,0
1601765183.436,-27.832,-24.414,-22.461,1.953,0.000,0
1601765183.440,-16.602,-27.344,-23.438,-5.371,0.000,0
1601765183.444,-7.324,-25.879,-26.367,-3.418,0.000,0
1601765183.448,-6.348,-22.949,-20.996,-4.883,0.000,0
1601765183.452,-1.465,-26.367,-20.508,1.953,0.000,0
1601765183.455,-14.160,-28.320,-27.344,8.301,0.000,0
1601765183.459,-22.461,-27.344,-27.832,3.418,0.000,0
1601765183.463,-9.766,-28.809,-30.762,7.812,0.000,0
1601765183.467,7.324,-29.785,-33.203,8.789,0.000,0
1601765183.471,-1.465,-30.762,-36.133,-10.254,0.000,0
1601765183.475,-20.508,-30.762,-30.273,-20.996,0.000,0
1601765183.479,-5.859,-31.250,-28.320,-12.695,0.000,0
1601765183.483,2.441,-29.297,-27.832,10.254,0.000,0
1601765183.487,-8.789,-32.715,-28.320,10.742,0.000,0
1601765183.491,-8.301,-37.109,-32.227,-3.906,0.000,0
1601765183.495,-10.742,-33.203,-35.156,-13.184,0.000,0
1601765183.498,-2.441,-29.785,-36.621,-11.719,0.000,0
1601765183.502,1.953,-27.832,-30.762,0.000,0.000,0
1601765183.506,-5.859,-31.738,-38.086,5.859,0.000,0
1601765183.510,-8.789,-31.250,-47.852,-1.465,0.000,0
1601765183.514,-12.207,-28.809,-38.086,-6.836,0.000,0
1601765183.518,-25.391,-30.273,-27.344,-3.418,0.000,0
1601765183.522,-36.621,-32.227,-30.762,-2.930,0.000,0
1601765183.526,-17.090,-34.668,-31.738,-0.977,0.000,0
1601765183.530,-15.625,-32.715,-24.902,5.371,0.000,0
1601765183.534,-36.133,-31.738,-29.785,-6.836,0.000,0
1601765183.538,-35.156,-31.250,-35.645,-9.766,0.000,0
1601765183.541,-27.832,-28.809,-34.668,-3.906,0.000,0
1601765183.545,-22.949,-29.297,-31.738,-7.812,0.000,0
1601765183.549,-12.695,-29.297,-29.785,-4.395,0.000,0
1601765183.553,-29.297,-31.250,-30.762,1.465,0.000,0
1601765183.557,-40.039,-32.715,-24.414,3.906,0.000,0
1601765183.561,-34.668,-34.668,-23.438,-10.254,0.000,0
1601765183.565,-34.180,-34.180,-28.320,-20.020,0.000,0
1601765183.569,-27.832,-32.227,-27.344,-20.020,0.000,0
1601765183.573,-28.320,-34.668,-25.879,-16.602,0.000,0
1601765183.577,-38.086,-36.621,-29.297,-13.672,0.000,0
1601765183.580,-41.016,-37.598,-32.227,-7.324,0.000,0
1601765183.584,-42.969,-33.691,-29.785,2.441,0.000,0
1601765183.588,-36.621,-31.250,-28.809,4.883,0.000,0
1601765183.592,-40.527,-29.297,-31.738,1.465,0.000,0
1601765183.596,-51.270,-27.832,-33.203,-14.160,0.000,0
1601765183.600,-49.316,-25.879,-32.227,-15.625,0.000,0
1601765183.604,-43.945,-28.320,-33.691,7.324,0.000,0
1601765183.608,-27.344,-32.227,-32.715,7.324,0.000,0
1601765183.612,-32.715,-33.691,-31.738,-2.930,0.000,0
1601765183.616,-45.898,-28.809,-43.457,3.418,0.000,0
1601765183.620,-42.969,-24.414,-45.898,-8.789,0.000,0
1601765183.623,-45.898,-30.273,-39.062,-21.973,0.000,0
1601765183.627,-25.879,-29.297,-35.645,-16.113,0.000,0
1601765183.631,-23.438,-30.273,-29.297,-20.020,0.000,0
1601765183.635,-29.297,-38.574,-33.203,-20.996,0.000,0
1601765183.639,-30.273,-36.133,-37.109,-6.836,0.000,0
1601765183.643,-35.156,-29.785,-35.156,-2.930,0.000,0
1601765183.647,-13.672,-31.738,-31.250,-7.324,0.000,0
1601765183.651,-11.719,-28.320,-28.320,-7.812,0.000,0
1601765183.655,-20.020,-23.438,-26.367,-5.859,0.000,0
1601765183.659,-32.227,-24.414,-30.273,-6.348,0.000,0
1601765183.663,-30.762,-27.344,-32.715,-1.465,0.000,0
1601765183.666,-17.578,-31.250,-28.320,8.301,0.000,0
1601765183.670,-20.508,-34.180,-28.809,-1.465,0.000,0
1601765183.674,-31.250,-34.668,-34.180,-14.160,0.000,0
1601765183.678,-41.992,-33.691,-38.574,-17.090,0.000,0
1601765183.682,-51.270,-33.203,-37.109,-14.648,0.000,0
1601765183.686,-40.039,-30.273,-34.668,-15.625,0.000,0
1601765183.690,-32.715,-31.250,-30.273,-15.137,0.000,0
1601765183.694,-35.645,-31.738,-26.367,-10.254,0.000,0
1601765183.698,-41.016,-33.203,-30.273,-2.441,0.000,0
1601765183.702,-41.992,-33.203,-35.645,0.000,0.000,0
1601765183.705,-34.180,-26.855,-33.203,5.371,0.000,0
1601765183.709,-33.691,-24.414,-32.227,8.301,0.000,0
1601765183.713,-39.062,-26.855,-34.180,0.977,0.000,0
1601765183.717,-43.945,-24.414,-34.180,-0.977,0.000,0
1601765183.721,-54.688,-25.879,-31.738,-25.879,0.000,0
1601765183.725,-51.758,-31.250,-29.785,-26.367,0.000,0
1601765183.729,-23.438,-31.738,-30.273,-13.184,0.000,0
1601765183.733,-24.902,-33.203,-37.598,-11.230,0.000,0
1601765183.737,-42.480,-34.180,-33.203,1.465,0.000,0
1601765183.741,-36.621,-31.738,-31.250,-12.695,0.000,0
1601765183.745,-25.879,-33.203,-38.086,-22.949,0.000,0
1601765183.748,-19.531,-30.273,-39.551,-12.695,0.000,0
1601765183.752,-28.320,-29.785,-40.039,-12.695,0.000,0
1601765183.756,-44.922,-35.645,-33.691,-16.602,0.000,0
1601765183.760,-44.434,-34.180,-24.902,-16.602,0.000,0
1601765183.764,-30.762,-29.785,-22.461,-7.812,0.000,0
1601765183.768,-19.531,-24.902,-21.484,7.324,0.000,0
1601765183.772,-27.832,-25.391,-24.902,3.418,0.000,0
1601765183.776,-41.504,-31.250,-28.809,-3.906,0.000,0
1601765183.780,-43.457,-31.250,-28.809,-2.441,0.000,0
1601765183.784,-26.855,-29.785,-30.273,0.488,0.000,0
1601765183.788,-15.625,-30.273,-28.809,-8.789,0.000,0
1601765183.791,-28.809,-26.855,-29.297,-14.160,0.000,0
1601765183.795,-38.574,-27.344,-33.203,-21.484,0.000,0
1601765183.799,-33.691,-27.344,-34.180,-21.973,0.000,0
1601765183.803,-23.926,-24.902,-39.062,-11.719,0.000,0
1601765183.807,-28.809,-28.809,-38.086,-4.883,0.000,0
1601765183.811,-27.344,-32.715,-32.715,-3.418,0.000,0
1601765183.815,-32.227,-33.691,-34.668,-5.371,0.000,0
1601765183.819,-46.387,-39.062,-34.668,-15.625,0.000,0
1601765183.823,-39.551,-43.457,-34.180,-1.953,0.000,0
1601765183.827,-32.227,-40.527,-35.156,-2.930,0.000,0
1601765183.830,-40.039,-41.504,-35.156,-10.742,0.000,0
1601765183.834,-45.410,-40.527,-41.992,-7.812,0.000,0
1601765183.838,-52.734,-36.621,-37.598,-25.879,0.000,0
1601765183.842,-55.176,-37.598,-37.109,-23.926,0.000,0
1601765183.846,-41.504,-35.645,-42.969,-2.441,0.000,0
1601765183.850,-35.645,-32.715,-39.062,-1.465,0.000,0
1601765183.854,-40.039,-32.715,-33.691,-16.113,0.000,0
1601765183.858,-53.223,-29.785,-29.785,-1.465,0.000,0
1601765183.862,-47.852,-34.180,-31.250,4.395,0.000,0
1601765183.866,-39.551,-37.109,-35.156,10.742,0.000,0
1601765183.870,-41.504,-35.156,-32.715,27.832,0.000,0
1601765183.873,-41.504,-37.598,-36.621,2.441,0.000,0
1601765183.877,-51.758,-38.086,-38.086,-31.250,0.000,0
1601765183.881,-39.551,-35.156,-34.668,-14.648,0.000,0
1601765183.885,-20.508,-30.762,-36.621,1.953,0.000,0
1601765183.889,-14.648,-30.273,-32.715,-15.137,0.000,0
1601765183.893,-13.672,-31.250,-31.738,-14.648,0.000,0
1601765183.897,-21.484,-31.250,-33.203,-7.324,0.000,0
1601765183.901,-17.578,-34.668,-32.715,-14.648,0.000,0
1601765183.905,-9.766,-31.738,-32.227,-9.277,0.000,0
1601765183.909,-14.648,-28.320,-31.738,3.906,0.000,0
1601765183.913,-6.836,-29.785,-33.691,15.625,0.000,0
1601765183.916,-7.324,-30.273,-39.551,0.977,0.000,0
1601765183.920,-9.766,-31.738,-32.715,-4.883,0.000,0
1601765183.924,-4.883,-28.320,-22.461,2.930,0.000,0
1601765183.928,2.441,-28.809,-26.367,1.465,0.000,0
1601765183.932,8.301,-29.297,-29.297,-7.812,0.000,0
1601765183.936,-4.883,-29.297,-26.367,-15.625,0.000,0
1601765183.940,-15.625,-29.785,-25.391,-27.832,0.000,0
1601765183.944,-15.625,-30.762,-33.691,-4.883,0.000,0
1601765183.948,-32.715,-34.668,-34.668,0.977,0.000,0
1601765183.952,-34.180,-37.598,-29.297,-23.926,0.000,0
1601765183.955,-23.926,-35.156,-35.156,1.465,0.000,0
1601765183.959,-21.973,-30.762,-30.762,8.789,0.000,0
1601765183.963,-14.648,-28.320,-29.785,-5.371,0.000,0
1601765183.967,-11.230,-27.344,-36.133,-10.254,0.000,0
1601765183.971,-16.113,-32.715,-35.156,-16.113,0.000,0
1601765183.975,-18.066,-37.109,-35.645,-13.184,0.000,0
1601765183.979,-32.227,-37.109,-34.180,-2.441,0.000,0
1601765183.983,-43.945,-38.574,-34.180,-3.418,0.000,0
1601765183.987,-28.809,-39.062,-32.227,-5.859,0.000,0
1601765183.991,-20.996,-34.180,-34.180,-0.488,0.000,0
1601765183.995,-25.879,-36.133,-33.691,-7.812,0.000,0
1601765183.998,-23.438,-39.551,-32.715,-9.277,0.000,0
1601765184.002,-22.949,-36.133,-34.668,-4.395,0.000,0
1601765184.006,-8.789,-33.691,-31.250,-5.371,0.000,0
1601765184.010,-5.371,-30.762,-30.273,-6.348,0.000,0
1601765184.014,3.906,-29.297,-32.227,-6.836,0.000,0
1601765184.018,-3.418,-33.203,-33.203,-2.930,0.000,0
1601765184.022,-14.648,-31.250,-32.227,-4.395,0.000,0
1601765184.026,-12.695,-26.855,-26.855,-6.348,0.000,0
1601765184.030,-8.789,-29.297,-28.320,-6.836,0.000,0
1601765184.034,-9.277,-33.203,-35.156,-10.742,0.000,0
1601765184.038,-8.301,-34.180,-31.250,-10.742,0.000,0
1601765184.041,-6.836,-33.691,-28.320,-19.531,0.000,0
1601765184.045,-24.902,-35.645,-31.250,-20.020,0.000,0
1601765184.049,-17.578,-36.621,-26.367,-3.906,0.000,0
1601765184.053,-10.254,-31.738,-21.973,4.395,0.000,0
1601765184.057,-20.020,-26.855,-24.902,-10.254,0.000,0
1601765184.061,-20.508,-28.809,-24.902,-0.488,0.000,0
1601765184.065,-9.277,-30.762,-26.855,11.230,0.000,0
1601765184.069,0.000,-24.902,-28.320,2.441,0.000,0
1601765184.073,1.465,-24.414,-24.902,-1.465,0.000,0
1601765184.077,-13.184,-31.738,-24.414,-1.953,0.000,0
1601765184.080,-24.902,-32.227,-25.391,-0.488,0.000,0
1601765184.084,-20.996,-34.668,-28.809,-6.348,0.000,0
1601765184.088,-18.555,-38.086,-27.832,-4.395,0.000,0
1601765184.092,-13.672,-36.133,-25.879,-3.906,0.000,0
1601765184.096,-14.648,-34.668,-28.320,-11.230,0.000,0
1601765184.100,-17.090,-30.273,-27.832,-20.508,0.000,0
1601765184.104,-11.719,-29.785,-32.715,-27.344,0.000,0
1601765184.108,0.000,-28.809,-28.320,-14.160,0.000,0
1601765184.112,-8.789,-22.461,-28.320,-7.324,0.000,0
1601765184.116,-21.484,-16.602,-36.621,-14.160,0.000,0
1601765184.120,-20.996,-18.555,-36.621,-34.668,0.000,0
1601765184.123,-18.555,-25.879,-36.621,-32.715,0.000,0
1601765184.127,-7.812,-30.273,-35.156,-22.461,0.000,0
1601765184.131,-3.418,-32.227,-33.691,-19.531,0.000,0
1601765184.135,-15.137,-31.738,-33.691,-24.414,0.000,0
1601765184.139,-40.527,-28.809,-36.133,-20.996,0.000,0
1601765184.143,-51.270,-23.926,-33.691,-6.836,0.000,0
1601765184.147,-46.387,-29.297,-26.855,-16.113,0.000,0
1601765184.151,-50.781,-31.250,-28.320,-20.508,0.000,0
1601765184.155,-62.988,-26.367,-27.344,-14.160,0.000,0
1601765184.159,-70.801,-29.785,-20.996,-0.977,0.000,0
1601765184.163,-55.176,-28.320,-24.414,0.977,0.000,0
1601765184.166,-39.062,-28.320,-30.273,3.418,0.000,0
1601765184.170,-41.504,-31.250,-23.438,4.395,0.000,0
1601765184.174,-39.551,-29.297,-21.973,1.465,0.000,0
1601765184.178,-38.086,-27.832,-25.391,-9.766,0.000,0
1601765184.182,-41.504,-27.344,-31.250,-13.184,0.000,0
1601765184.186,-41.504,-26.367,-31.250,8.789,0.000,0
1601765184.190,-24.902,-22.949,-27.344,10.254,0.000,0
1601765184.194,-25.391,-26.855,-41.504,0.488,0.000,0
1601765184.198,-40.039,-32.227,-46.875,-3.906,0.000,0
1601765184.202,-25.879,-29.785,-34.668,2.930,0.000,0
1601765184.205,-17.578,-26.367,-34.668,16.113,0.000,0
1601765184.209,-32.715,-26.367,-34.180,3.906,0.000,0
1601765184.213,-41.992,-32.715,-29.785,-18.555,0.000,0
1601765184.217,-47.852,-35.156,-30.762,-18.066,0.000,0
1601765184.221,-57.129,-31.250,-34.668,-14.648,0.000,0
1601765184.225,-59.570,-32.715,-32.227,5.859,0.000,0
1601765184.229,-38.086,-34.668,-28.809,8.301,0.000,0
1601765184.233,-41.016,-32.715,-29.785,-7.324,0.000,0
1601765184.237,-62.500,-29.785,-30.762,-7.324,0.000,0
1601765184.241,-41.992,-29.297,-35.156,-10.742,0.000,0
1601765184.245,-25.391,-32.227,-37.598,-10.742,0.000,0
1601765184.248,-33.203,-35.156,-36.621,-1.465,0.000,0
1601765184.252,-41.504,-34.668,-37.109,0.000,0.000,0
1601765184.256,-58.105,-35.156,-41.016,-3.906,0.000,0
1601765184.260,-46.387,-31.738,-40.039,-0.488,0.000,0
1601765184.264,-33.691,-26.855,-35.156,7.324,0.000,0
1601765184.268,-31.250,-27.344,-31.738,19.531,0.000,0
1601765184.272,-22.461,-27.344,-27.344,2.441,0.000,0
1601765184.276,-23.926,-28.320,-38.574,-27.832,0.000,0
1601765184.280,-26.367,-29.297,-47.852,-29.785,0.000,0
1601765184.284,-16.113,-32.227,-38.086,-15.137,0.000,0
1601765184.288,-25.391,-32.715,-35.645,-13.184,0.000,0
1601765184.291,-34.180,-30.762,-39.551,-16.602,0.000,0
1601765184.295,-45.410,-30.273,-36.621,-10.254,0.000,1
1601765184.299,-52.246,-32.227,-30.273,-11.230,0.000,0
1601765184.303,-42.480,-37.598,-30.762,-8.301,0.000,0
1601765184.307,-30.273,-39.551,-36.133,-1.465,0.000,0
1601765184.311,-35.645,-40.039,-31.738,4.395,0.000,0
1601765184.315,-36.133,-39.551,-28.320,2.441,0.000,0
1601765184.319,-36.621,-39.062,-31.250,-2.441,0.000,0
1601765184.323,-39.551,-35.156,-37.109,-11.719,0.000,0
1601765184.327,-22.461,-32.227,-29.297,-11.230,0.000,0
1601765184.330,-16.113,-35.645,-22.461,-10.254,0.000,0
1601765184.334,-28.320,-33.691,-28.809,-19.531,0.000,0
1601765184.338,-38.086,-28.809,-32.715,-6.836,0.000,0
1601765184.342,-28.809,-31.738,-33.203,-9.766,0.000,0
1601765184.346,-17.578,-31.738,-28.320,-5.859,0.000,0
1601765184.350,-2.930,-27.832,-24.902,11.230,0.000,0
1601765184.354,4.883,-26.855,-30.762,-12.207,0.000,0
1601765184.358,-18.555,-27.832,-35.156,-33.691,0.000,0
1601765184.362,-29.297,-26.367,-30.762,-11.719,0.000,0
1601765184.366,-19.531,-25.879,-29.297,9.766,0.000,0
1601765184.370,-13.184,-29.785,-30.273,-3.906,0.000,0
1601765184.373,-18.555,-32.715,-27.344,-6.348,0.000,0
1601765184.377,-31.250,-32.227,-22.949,-10.254,0.000,0
1601765184.381,-33.203,-32.227,-21.484,-18.066,0.000,0
1601765184.385,-7.324,-31.738,-25.879,-2.441,0.000,0
1601765184.389,-3.906,-30.762,-24.902,6.836,0.000,0
1601765184.393,-0.488,-31.250,-29.785,1.953,0.000,0
1601765184.397,11.719,-30.762,-33.203,-3.906,0.000,0
1601765184.401,-6.836,-35.156,-28.320,3.418,0.000,0
1601765184.405,-17.578,-36.621,-29.785,6.348,0.000,0
1601765184.409,-8.789,-32.715,-33.691,7.812,0.000,0
1601765184.413,-1.953,-35.156,-31.250,4.883,0.000,0
1601765184.416,-3.418,-34.668,-26.367,5.859,0.000,0
1601765184.420,-4.883,-33.691,-25.879,-0.488,0.000,0
1601765184.424,8.301,-32.227,-29.785,-7.324,0.000,0
1601765184.428,4.395,-32.715,-28.809,6.836,0.000,0
1601765184.432,-17.578,-35.156,-24.414,15.625,0.000,0
1601765184.436,-21.973,-39.062,-30.273,2.930,0.000,0
1601765184.440,-15.625,-38.086,-35.156,-15.137,0.000,0
1601765184.444,-16.113,-34.180,-31.250,2.441,0.000,0
1601765184.448,-11.230,-29.785,-26.367,13.672,0.000,0
1601765184.452,-8.301,-28.809,-23.438,12.207,0.000,0
1601765184.455,-20.996,-29.297,-29.297,13.672,0.000,0
1601765184.459,-16.602,-28.809,-30.273,1.465,0.000,0
1601765184.463,0.000,-29.785,-23.438,11.230,0.000,0
1601765184.467,3.906,-30.273,-23.438,13.672,0.000,0
1601765184.471,6.836,-31.250,-27.344,-5.371,0.000,0
1601765184.475,-4.883,-30.762,-27.832,-7.812,0.000,0
1601765184.479,-0.488,-25.879,-28.809,-11.230,0.000,0
1601765184.483,0.488,-25.391,-29.297,-10.254,0.000,0
1601765184.487,-15.625,-24.414,-26.367,7.812,0.000,0
1601765184.491,-9.277,-26.855,-32.715,1.465,0.000,0
1601765184.495,1.465,-27.344,-37.109,-19.531,0.000,0
1601765184.498,-22.949,-23.926,-29.297,-3.906,0.000,0
1601765184.502,-32.715,-27.832,-23.926,5.371,0.000,0
1601765184.506,-20.508,-25.879,-23.438,-1.465,0.000,0
1601765184.510,-30.762,-25.391,-28.809,3.418,0.000,0
1601765184.514,-26.855,-27.344,-27.344,-2.441,0.000,0
1601765184.518,-42.969,-30.762,-24.414,-7.324,0.000,0
1601765184.522,-38.086,-31.250,-26.855,1.953,0.000,0
1601765184.526,-20.020,-31.738,-32.227,-0.488,0.000,0
1601765184.530,-35.156,-36.133,-32.227,-4.395,0.000,0
1601765184.534,-49.805,-36.621,-29.785,-7.324,0.000,0
1601765184.538,-37.109,-27.344,-27.832,-13.184,0.000,0
1601765184.541,-27.832,-24.902,-27.832,-18.555,0.000,0
1601765184.545,-6.836,-24.414,-32.227,-8.301,0.000,0
1601765184.549,20.996,-20.020,-34.668,-0.488,0.000,0
1601765184.553,-0.488,-21.973,-30.273,-2.930,0.000,0
1601765184.557,-28.320,-21.484,-29.785,-5.859,0.000,0
1601765184.561,-21.484,-25.391,-34.180,-11.719,0.000,0
1601765184.565,-15.625,-27.832,-37.598,-29.297,0.000,0
1601765184.569,-25.391,-25.879,-41.504,-30.762,0.000,0
1601765184.573,-25.391,-26.855,-41.016,-26.367,0.000,0
1601765184.577,-24.414,-26.855,-39.062,-34.180,0.000,0
1601765184.580,-28.320,-25.879,-39.062,-29.297,0.000,0
1601765184.584,-29.785,-21.484,-33.203,-8.789,0.000,0
1601765184.588,-17.578,-20.020,-25.879,-20.020,0.000,0
1601765184.592,-20.996,-22.949,-24.414,-19.043,0.000,0
1601765184.596,-41.504,-25.391,-24.414,-11.230,0.000,0
1601765184.600,-26.855,-27.832,-31.250,-23.438,0.000,0
1601765184.604,-13.672,-27.344,-30.273,2.441,0.000,0
1601765184.608,-8.301,-24.414,-27.832,12.695,0.000,0
1601765184.612,-6.836,-22.949,-34.180,-5.371,0.000,0
1601765184.616,-7.812,-21.973,-35.156,-6.348,0.000,0
1601765184.620,-13.184,-24.414,-32.715,-18.066,0.000,0
1601765184.623,-6.348,-28.320,-29.785,-32.227,0.000,0
1601765184.627,8.301,-23.438,-30.273,-15.137,0.000,0
1601765184.631,5.859,-21.973,-34.180,-3.418,0.000,0
1601765184.635,6.836,-25.879,-32.227,-2.441,0.000,0
1601765184.639,-6.348,-24.902,-28.809,-15.625,0.000,0
1601765184.643,-5.859,-26.367,-32.227,-9.766,0.000,0
1601765184.647,10.742,-28.320,-32.227,9.766,0.000,0
1601765184.651,-12.207,-31.738,-34.180,-4.883,0.000,0
1601765184.655,-20.508,-30.762,-34.668,-4.395,0.000,0
1601765184.659,-35.156,-29.297,-30.273,-8.789,0.000,0
1601765184.663,-41.016,-32.227,-27.344,-7.324,0.000,0
1601765184.666,-29.785,-26.855,-23.438,1.465,0.000,0
1601765184.670,-25.879,-26.367,-21.973,2.930,0.000,0
1601765184.674,-35.645,-29.297,-21.973,-4.395,0.000,0
1601765184.678,-43.457,-29.297,-28.320,-18.066,0.000,0
1601765184.682,-33.691,-30.762,-32.227,-8.789,0.000,0
1601765184.686,-28.809,-30.273,-26.367,2.930,0.000,0
1601765184.690,-0.977,-29.785,-24.902,8.301,0.000,0
1601765184.694,4.395,-29.297,-33.203,-0.488,0.000,0
1601765184.698,-34.180,-31.250,-37.598,-10.742,0.000,0
1601765184.702,-23.926,-32.715,-31.250,-1.465,0.000,0
1601765184.705,-2.441,-33.203,-33.691,-12.695,0.000,0
1601765184.709,-10.254,-29.785,-32.227,-14.160,0.000,0
1601765184.713,-7.812,-26.855,-32.715,-13.184,0.000,0
1601765184.717,-10.254,-27.832,-40.039,-26.855,0.000,0
1601765184.721,-15.137,-27.344,-37.598,-20.996,0.000,0
1601765184.725,-9.766,-27.832,-38.574,-7.324,0.000,0
1601765184.729,-2.441,-26.367,-40.039,-1.953,0.000,0
1601765184.733,-10.742,-30.273,-37.109,-3.906,0.000,0
1601765184.737,-26.367,-34.180,-36.621,-13.672,0.000,0
1601765184.741,-42.969,-34.668,-34.180,-14.648,0.000,0
1601765184.745,-36.133,-34.180,-34.180,7.324,0.000,0
1601765184.748,-28.320,-35.156,-36.133,9.277,0.000,0
1601765184.752,-44.922,-41.504,-33.691,-11.230,0.000,0
1601765184.756,-46.387,-39.062,-32.715,-11.230,0.000,0
1601765184.760,-39.551,-31.738,-32.227,-9.277,0.000,0
1601765184.764,-39.551,-34.180,-30.273,0.000,0.000,0
1601765184.768,-38.086,-35.156,-27.344,3.906,0.000,0
1601765184.772,-30.273,-38.574,-25.391,-3.418,0.000,0
1601765184.776,-32.715,-41.992,-28.320,-17.578,0.000,0
1601765184.780,-42.480,-34.668,-29.785,-17.578,0.000,0
1601765184.784,-42.480,-29.297,-28.809,-12.207,0.000,0
1601765184.788,-28.809,-30.762,-31.738,-4.883,0.000,0
1601765184.791,-18.555,-28.320,-29.297,-1.953,0.000,0
1601765184.795,-16.602,-25.391,-28.809,2.441,0.000,0
1601765184.799,-1.953,-25.391,-28.809,3.906,0.000,0
1601765184.803,18.066,-22.949,-28.809,2.930,0.000,0
1601765184.807,8.789,-23.926,-37.598,-9.277,0.000,0
1601765184.811,-6.348,-25.391,-40.039,-17.090,0.000,0
1601765184.815,-13.672,-19.531,-34.180,-17.090,0.000,0
1601765184.819,-21.973,-19.531,-30.762,-13.672,0.000,0
1601765184.823,-9.277,-22.949,-30.273,-3.418,0.000,0
1601765184.827,-12.207,-22.949,-27.344,6.836,0.000,0
1601765184.830,-30.762,-26.855,-20.508,1.465,0.000,0
1601765184.834,-19.043,-22.949,-15.625,-0.488,0.000,0
1601765184.838,-23.926,-19.531,-23.438,-4.883,0.000,0
1601765184.842,-40.039,-28.320,-28.320,-9.766,0.000,0
1601765184.846,-31.250,-35.156,-27.832,-10.254,0.000,0
1601765184.850,-36.133,-37.109,-30.273,-8.789,0.000,0
1601765184.854,-51.270,-37.598,-32.227,-8.789,0.000,0
1601765184.858,-56.641,-37.598,-31.738,-18.066,0.000,0
1601765184.862,-55.176,-37.109,-34.668,-16.113,0.000,0
1601765184.866,-45.410,-36.133,-34.668,-11.230,0.000,0
1601765184.870,-31.738,-35.156,-34.180,-9.766,0.000,0
1601765184.873,-41.016,-36.621,-33.203,-3.906,0.000,0
1601765184.877,-36.133,-36.621,-30.273,-14.648,0.000,0
1601765184.881,-25.879,-32.227,-28.809,-20.996,0.000,0
1601765184.885,-23.438,-29.785,-28.809,-12.207,0.000,0
1601765184.889,-22.461,-33.203,-32.715,-11.719,0.000,0
1601765184.893,-20.508,-32.227,-32.715,-15.625,0.000,0
1601765184.897,-27.344,-26.367,-28.809,-10.254,0.000,0
1601765184.901,-32.715,-26.367,-32.227,-6.836,0.000,0
1601765184.905,-10.742,-32.227,-35.645,-14.160,0.000,0
1601765184.909,-24.414,-33.203,-30.762,-23.438,0.000,0
1601765184.913,-40.039,-31.250,-32.227,-20.508,0.000,0
1601765184.916,-28.809,-27.832,-32.227,-13.184,0.000,0
1601765184.920,-26.855,-24.414,-30.762,-7.324,0.000,0
1601765184.924,-18.066,-26.367,-36.621,10.254,0.000,0
1601765184.928,-14.160,-29.297,-30.762,11.719,0.000,0
1601765184.932,-17.090,-32.227,-25.879,-20.508,0.000,0
1601765184.936,0.488,-33.691,-30.273,-26.855,0.000,0
1601765184.940,-11.719,-32.715,-32.227,-23.926,0.000,0
1601765184.944,-32.227,-35.645,-31.250,-20.508,0.000,0
1601765184.948,-21.484,-32.715,-33.691,-7.812,0.000,0
1601765184.952,-19.531,-29.785,-34.180,-7.812,0.000,0
1601765184.955,-29.297,-34.180,-34.668,-12.207,0.000,0
1601765184.959,-39.062,-37.598,-36.133,-17.578,0.000,0
1601765184.963,-28.320,-37.598,-36.621,-7.812,0.000,0
1601765184.967,-20.508,-45.898,-29.297,2.441,0.000,0
1601765184.971,-39.551,-44.434,-25.391,-12.207,0.000,0
1601765184.975,-43.945,-36.133,-32.227,-20.020,0.000,0
1601765184.979,-41.992,-35.645,-29.785,-29.785,0.000,0
1601765184.983,-41.992,-31.738,-26.855,-27.832,0.000,0
1601765184.987,-28.809,-32.715,-31.738,-20.508,0.000,0
1601765184.991,-34.668,-38.574,-32.715,-20.508,0.000,0
1601765184.995,-40.039,-36.621,-27.832,-16.113,0.000,0
1601765184.998,-28.320,-34.180,-32.227,-22.949,0.000,0
1601765185.002,-33.691,-27.344,-38.574,-15.137,0.000,0
1601765185.006,-26.855,-21.973,-34.668,7.324,0.000,0
1601765185.010,-12.207,-23.926,-38.086,1.465,0.000,0
1601765185.014,-22.949,-25.879,-44.434,-24.414,0.000,0
1601765185.018,-37.598,-29.785,-38.574,-37.598,0.000,0
1601765185.022,-40.039,-33.691,-38.574,-23.438,0.000,0
1601765185.026,-17.578,-33.203,-43.457,-20.508,0.000,0
1601765185.030,-24.414,-29.785,-41.016,-28.809,0.000,0
1601765185.034,-30.762,-29.785,-34.668,-13.672,0.000,0
1601765185.038,-22.461,-29.785,-31.738,-11.719,0.000,0
1601765185.041,-31.738,-26.855,-32.715,-26.367,0.000,0
1601765185.045,-21.973,-25.879,-32.715,-23.926,0.000,0
1601765185.049,-11.230,-21.484,-31.738,-16.113,0.000,0
1601765185.053,-20.996,-18.555,-30.273,-12.207,0.000,0
1601765185.057,-21.484,-21.973,-32.715,-10.254,0.000,0
1601765185.061,-31.250,-22.949,-33.691,-7.812,0.000,0
1601765185.065,-44.434,-24.414,-30.762,-5.859,0.000,0
1601765185.069,-49.316,-26.855,-30.273,-11.230,0.000,0
1601765185.073,-53.223,-31.738,-27.344,-14.648,0.000,0
1601765185.077,-57.129,-28.809,-30.273,-15.625,0.000,0
1601765185.080,-62.988,-27.344,-30.273,-5.371,0.000,0
1601765185.084,-52.734,-31.250,-28.320,10.254,0.000,0
1601765185.088,-38.574,-35.645,-31.250,0.488,0.000,0
1601765185.092,-33.203,-34.180,-29.785,-10.254,0.000,0
1601765185.096,-34.180,-27.344,-32.227,1.465,0.000,0
1601765185.100,-36.133,-29.297,-41.016,-2.930,0.000,0
1601765185.104,-23.438,-26.855,-40.527,-3.906,0.000,0
1601765185.108,-0.488,-23.438,-34.180,-3.906,0.000,0
1601765185.112,-3.418,-24.414,-33.691,-3.418,0.000,0
1601765185.116,-31.738,-27.832,-34.668,1.465,0.000,0
1601765185.120,-42.480,-25.879,-38.574,-16.113,0.000,0
1601765185.123,-25.391,-23.926,-39.551,-22.949,0.000,0
1601765185.127,-15.137,-25.879,-36.133,-16.113,0.000,0
1601765185.131,-29.297,-24.414,-35.645,-6.836,0.000,0
1601765185.135,-33.203,-27.344,-26.855,-12.207,0.000,0
1601765185.139,-45.898,-32.227,-23.438,-18.555,0.000,0
1601765185.143,-45.898,-35.156,-28.809,-4.883,0.000,0
1601765185.147,-5.859,-32.715,-25.391,4.883,0.000,0
1601765185.151,-4.395,-30.273,-26.367,6.836,0.000,0
1601765185.155,-21.973,-31.250,-28.320,-7.812,0.000,0
1601765185.159,-18.555,-28.809,-27.344,-13.672,0.000,0
1601765185.163,-18.066,-24.902,-29.297,0.977,0.000,0
1601765185.166,-11.230,-27.832,-34.180,11.719,0.000,0
1601765185.170,-5.859,-30.762,-36.621,-1.953,0.000,0
1601765185.174,-16.113,-26.855,-33.203,-4.883,0.000,0
1601765185.178,-30.762,-26.855,-29.785,-6.836,0.000,0
1601765185.182,-37.109,-30.762,-32.227,-11.719,0.000,0
1601765185.186,-28.809,-29.785,-33.203,-2.441,0.000,0
1601765185.190,-3.418,-31.250,-28.320,0.977,0.000,0
1601765185.194,-11.719,-34.180,-33.691,-15.625,0.000,0
1601765185.198,-41.504,-28.809,-40.039,-16.602,0.000,0
1601765185.202,-41.016,-27.344,-32.715,-6.348,0.000,0
1601765185.205,-35.156,-31.738,-30.762,-9.277,0.000,0
1601765185.209,-34.180,-36.621,-28.320,-11.230,0.000,0
1601765185.213,-33.203,-35.645,-24.414,-14.648,0.000,0
1601765185.217,-41.504,-31.738,-27.832,-21.484,0.000,0
1601765185.221,-30.273,-31.250,-28.320,-23.926,0.000,0
1601765185.225,-17.578,-30.273,-25.391,-18.555,0.000,0
1601765185.229,-19.043,-28.809,-27.832,-1.465,0.000,0
1601765185.233,-17.578,-25.879,-28.320,-4.395,0.000,0
1601765185.237,-32.715,-25.391,-21.973,-16.602,0.000,0
1601765185.241,-29.785,-27.832,-20.996,1.953,0.000,0
1601765185.245,-20.996,-30.762,-20.508,21.484,0.000,0
1601765185.248,-30.273,-31.250,-16.113,16.602,0.000,0
1601765185.252,-31.250,-26.855,-21.973,-9.766,0.000,0
1601765185.256,-30.273,-27.832,-29.785,-15.625,0.000,0
1601765185.260,-33.203,-29.297,-28.809,-8.301,0.000,0
1601765185.264,-32.227,-27.344,-32.227,-2.441,0.000,0
1601765185.268,-20.020,-25.391,-32.227,3.906,0.000,0
1601765185.272,-5.859,-26.367,-28.320,-9.277,0.000,0
1601765185.276,-4.883,-31.738,-31.250,-19.531,0.000,0
1601765185.280,-23.438,-32.715,-30.762,-13.672,0.000,0
1601765185.284,-24.902,-29.785,-33.691,-1.953,0.000,0
1601765185.288,-10.254,-28.320,-32.227,0.977,0.000,0
1601765185.291,-3.906,-30.273,-24.902,-1.465,0.000,0
1601765185.295,-14.648,-31.250,-21.973,3.418,0.000,0
1601765185.299,-21.484,-32.715,-31.738,3.418,0.000,0
1601765185.303,-14.648,-36.621,-41.016,-8.301,0.000,0
1601765185.307,-17.578,-34.180,-33.203,-9.277,0.000,0
1601765185.311,-4.395,-31.738,-24.414,-3.418,0.000,0
1601765185.315,-5.859,-30.762,-30.273,-9.277,0.000,0
1601765185.319,-33.691,-29.785,-30.762,-8.301,0.000,0
1601765185.323,-32.227,-33.203,-28.809,-3.906,0.000,0
1601765185.327,-20.508,-35.156,-32.715,-5.859,0.000,0
1601765185.330,-5.859,-32.227,-31.250,0.977,0.000,0
1601765185.334,-9.277,-36.133,-34.180,-8.789,0.000,0
1601765185.338,-27.832,-41.992,-34.180,-11.230,0.000,0
1601765185.342,-20.020,-38.086,-24.902,-13.184,0.000,0
1601765185.346,-11.719,-32.227,-28.320,-12.695,0.000,0
1601765185.350,-13.184,-27.832,-28.809,-8.301,0.000,0
1601765185.354,-12.207,-27.344,-27.832,-9.766,0.000,0
1601765185.358,-19.043,-27.344,-32.715,-18.555,0.000,0
1601765185.362,-11.230,-24.414,-28.320,-8.789,0.000,0
1601765185.366,13.184,-20.020,-17.090,5.371,0.000,0
1601765185.370,0.000,-20.020,-13.184,3.906,0.000,0
1601765185.373,-19.043,-25.879,-22.949,-16.113,0.000,0
1601765185.377,-19.531,-25.391,-25.879,-16.602,0.000,0
1601765185.381,-19.531,-23.926,-25.391,-2.441,0.000,0
1601765185.385,-17.578,-24.414,-28.809,1.953,0.000,0
1601765185.389,-22.949,-26.855,-32.227,-10.742,0.000,1
1601765185.393,-23.926,-31.738,-33.203,-17.578,0.000,0
1601765185.397,-20.020,-29.785,-32.715,-17.090,0.000,0
1601765185.401,-20.020,-27.832,-37.109,-14.648,0.000,0
1601765185.405,-13.672,-30.762,-33.203,-0.488,0.000,0
1601765185.409,-11.719,-30.273,-30.762,8.301,0.000,0
1601765185.413,-27.344,-27.832,-34.180,-8.789,0.000,0
1601765185.416,-28.809,-26.367,-31.738,-18.555,0.000,0
1601765185.420,-30.762,-28.320,-25.391,-12.695,0.000,0
1601765185.424,-35.156,-32.715,-26.367,-19.043,0.000,0
1601765185.428,-24.414,-35.645,-34.180,6.348,0.000,0
1601765185.432,-12.207,-35.645,-29.785,15.137,0.000,0
1601765185.436,-12.207,-31.250,-31.250,-9.766,0.000,0
1601765185.440,-19.531,-28.809,-38.574,-8.789,0.000,0
1601765185.444,-24.414,-31.250,-38.574,-6.348,0.000,0
1601765185.448,-17.090,-33.203,-33.203,-6.836,0.000,0
1601765185.452,-9.277,-29.297,-30.273,-10.254,0.000,0
1601765185.455,-11.230,-26.855,-26.855,-3.906,0.000,0
1601765185.459,-31.250,-26.367,-27.832,-6.836,0.000,0
1601765185.463,-21.973,-27.344,-29.785,-5.859,0.000,0
1601765185.467,0.000,-29.297,-30.273,0.000,0.000,0
1601765185.471,-12.695,-30.762,-32.715,-9.766,0.000,0
1601765185.475,-21.973,-31.738,-32.715,-16.602,0.000,0
1601765185.479,-35.645,-29.297,-27.344,-0.977,0.000,0
1601765185.483,-36.133,-27.344,-25.391,10.254,0.000,0
1601765185.487,-21.484,-27.344,-31.250,-4.883,0.000,0
1601765185.491,-22.461,-28.809,-30.762,-5.371,0.000,0
1601765185.495,-24.902,-27.832,-31.250,-6.836,0.000,0
1601765185.498,-37.598,-30.273,-33.203,-14.160,0.000,0
1601765185.502,-36.133,-34.180,-39.062,-4.395,0.000,0
1601765185.506,-24.414,-38.086,-43.945,1.465,0.000,0
1601765185.510,-31.738,-40.527,-41.016,-11.230,0.000,0
1601765185.514,-47.363,-41.504,-39.551,-5.859,0.000,0
1601765185.518,-59.082,-36.621,-38.574,14.648,0.000,0
1601765185.522,-48.828,-32.227,-39.062,11.230,0.000,0
1601765185.526,-44.434,-33.203,-38.574,8.789,0.000,0
1601765185.530,-36.621,-31.738,-32.715,18.555,0.000,0
1601765185.534,-17.090,-30.273,-36.621,-4.395,0.000,0
1601765185.538,-34.180,-32.227,-38.574,-26.367,0.000,0
1601765185.541,-40.039,-32.715,-38.086,-9.277,0.000,0
1601765185.545,-15.625,-27.344,-40.039,-14.648,0.000,0
1601765185.549,-17.578,-27.832,-35.645,-15.625,0.000,0
1601765185.553,-30.762,-29.297,-37.598,-8.301,0.000,0
1601765185.557,-50.293,-28.809,-39.551,-12.207,0.000,0
1601765185.561,-41.504,-31.738,-36.133,-7.324,0.000,0
1601765185.565,-27.344,-31.738,-36.133,-13.184,0.000,0
1601765185.569,-19.043,-30.273,-30.762,-17.578,0.000,0
1601765185.573,-3.418,-28.809,-30.762,-15.625,0.000,0
1601765185.577,-23.438,-30.762,-35.156,-10.742,0.000,0
1601765185.580,-42.969,-31.738,-28.809,-4.883,0.000,0
1601765185.584,-35.645,-34.180,-29.785,-1.953,0.000,0
1601765185.588,-31.250,-39.551,-30.273,18.066,0.000,0
1601765185.592,-39.062,-41.992,-29.785,1.953,0.000,0
1601765185.596,-48.828,-40.527,-28.809,-15.625,0.000,0
1601765185.600,-37.598,-35.156,-32.227,0.488,0.000,0
1601765185.604,-32.227,-35.645,-33.691,1.953,0.000,0
1601765185.608,-37.598,-34.180,-29.297,-4.883,0.000,0
1601765185.612,-31.250,-33.691,-33.203,-18.555,0.000,0
1601765185.616,-38.574,-33.203,-38.086,-11.719,0.000,0
1601765185.620,-38.574,-34.180,-36.133,-5.371,0.000,0
1601765185.623,-16.113,-35.156,-32.715,-2.930,0.000,0
1601765185.627,-20.508,-33.691,-33.203,6.348,0.000,0
1601765185.631,-20.020,-32.715,-32.227,-7.812,0.000,0
1601765185.635,-11.719,-29.785,-31.738,-5.859,0.000,0
1601765185.639,-20.508,-29.297,-32.715,0.000,0.000,0
1601765185.643,-4.395,-25.879,-27.832,-1.465,0.000,0
1601765185.647,2.441,-26.855,-25.879,0.000,0.000,0
1601765185.651,-3.418,-32.227,-26.367,-1.953,0.000,0
1601765185.655,-11.719,-34.180,-23.438,-1.953,0.000,0
1601765185.659,-14.160,-29.297,-28.320,6.348,0.000,0
1601765185.663,-9.766,-31.250,-26.855,7.812,0.000,0
1601765185.666,-12.207,-36.133,-21.484,-3.906,0.000,0
1601765185.670,-9.766,-33.691,-21.484,2.441,0.000,0
1601765185.674,2.441,-34.668,-23.926,1.953,0.000,0
1601765185.678,-13.672,-36.621,-24.414,3.906,0.000,0
1601765185.682,-10.254,-33.691,-22.949,11.719,0.000,0
1601765185.686,-4.395,-34.180,-25.391,21.484,0.000,0
1601765185.690,-31.738,-33.691,-28.809,10.742,0.000,0
1601765185.694,-23.438,-30.273,-30.762,1.465,0.000,0
1601765185.698,-23.926,-32.227,-32.227,-17.090,0.000,0
1601765185.702,-16.602,-30.273,-35.156,-21.484,0.000,0
1601765185.705,-13.672,-31.738,-32.715,-5.859,0.000,0
1601765185.709,-25.391,-36.133,-34.668,0.977,0.000,0
1601765185.713,-27.344,-35.645,-39.551,-10.742,0.000,0
1601765185.717,-32.227,-33.203,-38.086,-19.043,0.000,0
1601765185.721,-22.949,-30.762,-33.203,-15.625,0.000,0
1601765185.725,-11.719,-35.156,-29.785,-6.348,0.000,0
1601765185.729,-8.789,-34.180,-30.273,0.488,0.000,0
1601765185.733,-18.555,-29.785,-29.297,-7.812,0.000,0
1601765185.737,-23.926,-27.832,-25.391,5.859,0.000,0
1601765185.741,-24.902,-26.367,-27.344,7.324,0.000,0
1601765185.745,-26.855,-27.832,-29.297,-4.395,0.000,0
1601765185.748,-24.414,-25.391,-27.832,-3.906,0.000,0
1601765185.752,-26.367,-25.879,-24.414,-2.930,0.000,0
1601765185.756,-45.410,-33.203,-26.855,3.418,0.000,0
1601765185.760,-47.852,-34.668,-33.203,-0.977,0.000,0
1601765185.764,-32.227,-30.762,-32.227,3.418,0.000,0
1601765185.768,-29.297,-31.738,-28.809,16.113,0.000,0
1601765185.772,-37.109,-35.645,-27.832,-3.906,0.000,0
1601765185.776,-36.621,-34.668,-36.621,-21.973,0.000,0
1601765185.780,-39.062,-31.738,-39.551,-17.578,0.000,0
1601765185.784,-25.879,-31.738,-39.062,-21.484,0.000,0
1601765185.788,-13.184,-30.273,-36.133,-19.531,0.000,0
1601765185.791,-20.508,-27.344,-33.691,-17.090,0.000,0
1601765185.795,-23.438,-28.809,-34.668,-2.930,0.000,0
1601765185.799,-25.391,-29.785,-35.645,-0.977,0.000,0
1601765185.803,-13.184,-27.344,-33.203,-2.441,0.000,0
1601765185.807,-16.602,-28.809,-35.156,-6.836,0.000,0
1601765185.811,-17.578,-31.250,-35.156,-11.719,0.000,0
1601765185.815,-22.949,-33.691,-33.691,-2.930,0.000,0
1601765185.819,-32.715,-35.156,-35.645,-1.465,0.000,0
1601765185.823,-26.855,-31.738,-35.156,1.953,0.000,0
1601765185.827,-27.344,-29.297,-30.273,-2.930,0.000,0
1601765185.830,-22.461,-30.762,-25.391,-3.906,0.000,0
1601765185.834,-27.344,-35.645,-41.992,-8.301,0.000,0
1601765185.838,-40.039,-36.133,-47.363,-17.578,0.000,0
1601765185.842,-34.180,-32.227,-37.598,0.977,0.000,0
1601765185.846,-26.367,-33.691,-39.062,7.812,0.000,0
1601765185.850,-27.832,-30.762,-38.574,-0.488,0.000,0
1601765185.854,-21.484,-30.762,-29.785,-15.625,0.000,0
1601765185.858,-34.180,-34.180,-28.809,-24.414,0.000,0
1601765185.862,-29.297,-31.250,-33.203,-9.277,0.000,0
1601765185.866,-28.809,-32.227,-34.180,1.465,0.000,0
1601765185.870,-46.387,-33.203,-33.203,-13.184,0.000,0
1601765185.873,-41.992,-31.738,-33.691,-32.227,0.000,0
1601765185.877,-45.898,-31.738,-40.039,-32.715,0.000,0
1601765185.881,-53.223,-33.691,-39.551,-20.508,0.000,0
1601765185.885,-41.016,-32.715,-35.156,-11.230,0.000,0
1601765185.889,-26.367,-32.715,-28.809,-5.859,0.000,0
1601765185.893,-22.949,-36.133,-33.203,-3.418,0.000,0
1601765185.897,-40.527,-38.574,-40.527,-17.090,0.000,0
1601765185.901,-51.270,-38.574,-42.969,-30.273,0.000,0
1601765185.905,-36.621,-35.645,-43.945,-22.461,0.000,0
1601765185.909,-13.672,-33.203,-42.480,-14.648,0.000,0
1601765185.913,-13.184,-31.250,-41.016,-8.301,0.000,0
1601765185.916,-45.898,-35.156,-39.062,-6.836,0.000,0
1601765185.920,-49.805,-36.621,-38.086,-14.648,0.000,0
1601765185.924,-38.086,-35.645,-36.621,-10.254,0.000,0
1601765185.928,-32.715,-35.645,-34.668,-6.836,0.000,0
1601765185.932,-29.297,-36.133,-40.039,-24.414,0.000,0
1601765185.936,-34.668,-38.574,-48.828,-25.879,0.000,0
1601765185.940,-49.316,-41.016,-46.875,-18.555,0.000,0
1601765185.944,-44.922,-42.480,-36.621,-20.020,0.000,0
1601765185.948,-33.203,-38.574,-35.156,-17.090,0.000,0
1601765185.952,-34.180,-33.691,-37.598,-13.672,0.000,0
1601765185.955,-29.297,-31.250,-33.691,-13.672,0.000,0
1601765185.959,-30.762,-31.738,-36.621,-13.184,0.000,0
1601765185.963,-21.973,-33.691,-38.574,0.488,0.000,0
1601765185.967,-28.809,-34.180,-32.715,0.977,0.000,0
1601765185.971,-25.391,-32.227,-35.156,-7.812,0.000,0
1601765185.975,-16.602,-32.227,-33.203,-14.160,0.000,0
