timestamps,TP9,AF7,AF8,TP10,Right AUX,Marker0
1601748339.379,-45.898,-24.414,-48.340,-38.574,0.000,0
1601748339.383,-47.363,-26.367,-51.270,-50.781,0.000,0
1601748339.387,-45.898,-26.367,-50.781,-44.434,0.000,0
1601748339.391,-49.316,-26.855,-45.898,-41.016,0.000,0
1601748339.395,-48.340,-30.273,-47.363,-39.551,0.000,0
1601748339.399,-45.410,-27.344,-47.363,-40.039,0.000,0
1601748339.402,-49.316,-28.320,-46.875,-47.363,0.000,0
1601748339.406,-47.852,-31.250,-49.805,-43.945,0.000,0
1601748339.410,-39.062,-23.438,-52.246,-37.598,0.000,0
1601748339.414,-31.250,-21.484,-47.363,-26.367,0.000,0
1601748339.418,-28.809,-23.926,-45.898,-21.973,0.000,0
1601748339.422,-34.180,-23.926,-47.363,-40.039,0.000,0
1601748339.426,-40.039,-27.832,-51.270,-47.363,0.000,0
1601748339.430,-42.480,-27.344,-56.641,-49.805,0.000,0
1601748339.434,-41.992,-26.367,-57.617,-52.734,0.000,0
1601748339.438,-47.363,-30.762,-54.688,-38.574,0.000,0
1601748339.442,-54.688,-32.227,-53.711,-44.434,0.000,0
1601748339.445,-60.547,-37.109,-55.176,-58.594,0.000,0
1601748339.449,-55.664,-45.898,-54.199,-56.152,0.000,0
1601748339.453,-46.387,-41.016,-51.758,-42.969,0.000,0
1601748339.457,-45.410,-33.203,-48.828,-35.645,0.000,0
1601748339.461,-48.828,-34.180,-47.852,-39.062,0.000,0
1601748339.465,-47.852,-32.227,-46.387,-41.016,0.000,0
1601748339.469,-43.457,-31.738,-49.316,-44.922,0.000,0
1601748339.473,-41.504,-33.203,-49.316,-33.691,0.000,0
1601748339.477,-44.922,-33.203,-46.875,-28.320,0.000,0
1601748339.481,-48.340,-30.762,-43.457,-33.203,0.000,0
1601748339.485,-51.758,-31.250,-41.016,-39.551,0.000,0
1601748339.488,-49.316,-29.785,-45.898,-43.457,0.000,0
1601748339.492,-46.387,-28.320,-42.969,-45.898,0.000,0
1601748339.496,-55.176,-34.180,-43.945,-46.387,0.000,0
1601748339.500,-58.594,-33.203,-48.828,-48.828,0.000,0
1601748339.504,-55.176,-31.738,-46.387,-57.617,0.000,0
1601748339.508,-54.688,-25.879,-45.410,-58.594,0.000,0
1601748339.512,-55.664,-27.832,-46.875,-57.617,0.000,0
1601748339.516,-53.223,-31.738,-48.828,-51.758,0.000,0
1601748339.520,-47.363,-25.879,-44.434,-43.945,0.000,0
1601748339.524,-50.781,-28.809,-44.922,-46.875,0.000,0
1601748339.527,-54.199,-25.879,-47.852,-39.551,0.000,0
1601748339.531,-48.340,-22.461,-46.875,-36.621,0.000,0
1601748339.535,-44.434,-22.949,-46.875,-41.016,0.000,0
1601748339.539,-40.527,-22.461,-42.480,-31.738,0.000,0
1601748339.543,-47.852,-23.438,-40.527,-31.738,0.000,0
1601748339.547,-56.641,-25.879,-46.875,-36.621,0.000,0
1601748339.551,-51.758,-25.391,-44.434,-32.227,0.000,0
1601748339.555,-56.641,-26.367,-40.039,-33.203,0.000,0
1601748339.559,-63.965,-28.809,-43.945,-40.039,0.000,0
1601748339.563,-67.383,-28.809,-46.875,-43.457,0.000,0
1601748339.567,-63.965,-28.320,-41.016,-46.387,0.000,0
1601748339.570,-56.152,-28.320,-40.039,-49.316,0.000,0
1601748339.574,-59.082,-30.273,-43.945,-44.434,0.000,0
1601748339.578,-59.082,-32.715,-50.781,-41.016,0.000,0
1601748339.582,-56.152,-31.738,-51.758,-38.574,0.000,0
1601748339.586,-57.617,-33.203,-46.387,-34.180,0.000,0
1601748339.590,-53.223,-34.180,-49.316,-26.855,0.000,0
1601748339.594,-43.457,-29.785,-48.828,-23.926,0.000,0
1601748339.598,-43.457,-29.785,-44.922,-21.973,0.000,0
1601748339.602,-50.293,-29.297,-47.852,-31.250,0.000,0
1601748339.606,-50.293,-28.809,-50.293,-37.598,0.000,0
1601748339.610,-52.734,-31.738,-47.363,-30.762,0.000,0
1601748339.613,-53.711,-32.227,-45.898,-26.367,0.000,0
1601748339.617,-53.711,-30.273,-45.898,-25.879,0.000,0
1601748339.621,-60.059,-31.250,-49.316,-40.039,0.000,0
1601748339.625,-66.406,-35.645,-57.617,-43.457,0.000,0
1601748339.629,-68.359,-34.668,-60.059,-33.691,0.000,0
1601748339.633,-63.477,-30.273,-54.199,-28.320,0.000,0
1601748339.637,-57.617,-29.297,-57.617,-27.344,0.000,0
1601748339.641,-60.059,-30.273,-61.523,-34.180,0.000,0
1601748339.645,-57.129,-28.320,-57.617,-42.480,0.000,2
1601748339.649,-46.875,-28.320,-58.105,-37.598,0.000,0
1601748339.652,-46.387,-28.809,-58.594,-24.902,0.000,0
1601748339.656,-54.199,-29.785,-59.082,-33.203,0.000,0
1601748339.660,-55.176,-33.691,-61.035,-41.016,0.000,0
1601748339.664,-48.828,-28.809,-57.617,-37.598,0.000,0
1601748339.668,-53.223,-26.855,-53.711,-47.363,0.000,0
1601748339.672,-56.641,-29.785,-56.641,-50.781,0.000,0
1601748339.676,-50.781,-27.832,-54.688,-34.180,0.000,0
1601748339.680,-51.270,-26.367,-48.828,-28.809,0.000,0
1601748339.684,-49.805,-27.344,-51.270,-41.504,0.000,0
1601748339.688,-54.199,-31.738,-56.641,-48.828,0.000,0
1601748339.692,-54.199,-29.785,-53.223,-37.109,0.000,0
1601748339.695,-49.805,-24.902,-47.852,-28.809,0.000,0
1601748339.699,-42.969,-20.996,-48.828,-38.086,0.000,0
1601748339.703,-41.992,-23.438,-54.199,-46.875,0.000,0
1601748339.707,-46.875,-30.762,-56.641,-43.945,0.000,0
1601748339.711,-50.781,-32.227,-54.199,-41.992,0.000,0
1601748339.715,-54.688,-30.762,-57.617,-41.016,0.000,0
1601748339.719,-50.781,-35.645,-60.547,-43.945,0.000,0
1601748339.723,-48.828,-38.086,-58.105,-39.551,0.000,0
1601748339.727,-53.223,-37.109,-51.270,-37.109,0.000,0
1601748339.731,-54.688,-34.180,-52.246,-39.062,0.000,0
1601748339.735,-52.734,-35.156,-58.105,-33.691,0.000,0
1601748339.738,-58.105,-38.574,-58.105,-37.109,0.000,0
1601748339.742,-63.477,-36.133,-58.105,-41.504,0.000,0
1601748339.746,-63.477,-34.668,-55.664,-38.086,0.000,0
1601748339.750,-58.594,-31.738,-53.711,-42.969,0.000,0
1601748339.754,-53.711,-32.227,-52.246,-42.969,0.000,0
1601748339.758,-53.223,-31.738,-52.246,-47.363,0.000,0
1601748339.762,-56.152,-30.273,-52.246,-60.547,0.000,0
1601748339.766,-60.059,-33.203,-54.199,-64.941,0.000,0
1601748339.770,-58.594,-31.250,-49.805,-55.176,0.000,0
1601748339.774,-56.641,-31.250,-48.340,-43.457,0.000,0
1601748339.777,-55.664,-29.297,-52.246,-45.898,0.000,0
1601748339.781,-55.664,-24.414,-54.688,-56.152,0.000,0
1601748339.785,-62.012,-27.832,-54.199,-58.594,0.000,0
1601748339.789,-62.012,-29.785,-53.711,-47.363,0.000,0
1601748339.793,-64.453,-33.203,-52.246,-43.945,0.000,0
1601748339.797,-64.941,-34.668,-47.363,-41.992,0.000,0
1601748339.801,-54.199,-30.273,-45.410,-46.387,0.000,0
1601748339.805,-49.316,-28.809,-43.945,-49.316,0.000,0
1601748339.809,-49.805,-28.320,-48.828,-42.969,0.000,0
1601748339.813,-47.852,-26.367,-49.805,-39.062,0.000,0
1601748339.817,-43.457,-27.344,-50.293,-39.062,0.000,0
1601748339.820,-43.457,-32.227,-46.387,-36.621,0.000,0
1601748339.824,-43.457,-35.156,-46.387,-35.645,0.000,0
1601748339.828,-39.551,-30.273,-48.340,-34.668,0.000,0
1601748339.832,-42.480,-27.832,-46.387,-30.762,0.000,0
1601748339.836,-41.504,-30.273,-45.898,-19.531,0.000,0
1601748339.840,-49.316,-29.297,-45.898,-34.668,0.000,0
1601748339.844,-47.852,-29.297,-49.316,-45.410,0.000,0
1601748339.848,-27.344,-28.809,-45.898,-21.973,0.000,0
1601748339.852,-36.621,-22.949,-40.527,-10.742,0.000,0
1601748339.856,-43.457,-24.902,-42.969,-18.066,0.000,0
1601748339.860,-51.758,-25.391,-44.922,-42.969,0.000,0
1601748339.863,-62.500,-20.996,-43.457,-54.199,0.000,0
1601748339.867,-51.758,-22.461,-42.480,-43.945,0.000,0
1601748339.871,-53.711,-28.809,-47.852,-36.621,0.000,0
1601748339.875,-51.270,-28.320,-53.223,-32.227,0.000,0
1601748339.879,-49.316,-24.414,-51.270,-39.551,0.000,0
1601748339.883,-51.758,-27.344,-46.387,-42.969,0.000,0
1601748339.887,-50.781,-28.809,-46.387,-35.156,0.000,0
1601748339.891,-46.387,-26.855,-46.387,-27.832,0.000,0
1601748339.895,-50.293,-27.832,-41.016,-20.020,0.000,0
1601748339.899,-56.152,-29.297,-42.480,-34.668,0.000,0
1601748339.902,-52.246,-25.879,-39.062,-52.246,0.000,0
1601748339.906,-43.945,-22.949,-35.645,-48.828,0.000,0
1601748339.910,-40.527,-23.926,-37.109,-42.480,0.000,0
1601748339.914,-41.016,-24.902,-41.016,-40.527,0.000,0
1601748339.918,-39.551,-21.973,-41.504,-40.527,0.000,0
1601748339.922,-46.875,-26.855,-41.504,-48.828,0.000,0
1601748339.926,-60.059,-30.273,-41.992,-55.664,0.000,0
1601748339.930,-58.105,-30.273,-45.898,-50.293,0.000,0
1601748339.934,-48.340,-33.691,-47.852,-45.898,0.000,0
1601748339.938,-51.270,-33.691,-44.922,-43.945,0.000,0
1601748339.942,-45.898,-29.297,-46.387,-44.434,0.000,0
1601748339.945,-34.180,-27.344,-45.410,-46.387,0.000,0
1601748339.949,-33.691,-28.320,-44.434,-34.668,0.000,0
1601748339.953,-32.227,-24.414,-45.898,-28.809,0.000,0
1601748339.957,-32.715,-21.484,-48.828,-41.016,0.000,0
1601748339.961,-42.969,-22.461,-48.828,-57.129,0.000,0
1601748339.965,-47.852,-24.414,-44.922,-66.406,0.000,0
1601748339.969,-43.457,-25.391,-43.945,-59.570,0.000,0
1601748339.973,-38.086,-25.879,-42.480,-52.246,0.000,0
1601748339.977,-38.574,-24.414,-41.992,-41.504,0.000,0
1601748339.981,-41.504,-25.391,-45.898,-46.387,0.000,0
1601748339.985,-39.551,-26.367,-47.852,-53.223,0.000,0
1601748339.988,-38.574,-24.902,-49.316,-53.223,0.000,0
1601748339.992,-38.574,-27.832,-50.293,-48.340,0.000,0
1601748339.996,-38.086,-27.832,-45.898,-38.086,0.000,0
1601748340.000,-39.062,-28.809,-48.340,-44.922,0.000,0
1601748340.004,-41.504,-32.715,-51.270,-56.152,0.000,0
1601748340.008,-43.945,-29.785,-46.875,-48.828,0.000,0
1601748340.012,-40.527,-29.297,-47.363,-41.016,0.000,0
1601748340.016,-36.621,-30.762,-50.293,-41.504,0.000,0
1601748340.020,-37.109,-29.785,-51.270,-41.504,0.000,0
1601748340.024,-48.828,-32.227,-52.246,-54.199,0.000,0
1601748340.027,-54.199,-36.133,-49.316,-62.988,0.000,0
1601748340.031,-49.805,-36.133,-47.852,-56.641,0.000,0
1601748340.035,-52.246,-34.180,-51.758,-53.711,0.000,0
1601748340.039,-52.734,-34.668,-52.734,-62.012,0.000,0
1601748340.043,-47.363,-34.668,-51.758,-63.965,0.000,0
1601748340.047,-49.316,-33.203,-53.711,-62.500,0.000,0
1601748340.051,-49.805,-36.621,-54.199,-54.199,0.000,0
1601748340.055,-38.574,-33.691,-52.246,-40.039,0.000,0
1601748340.059,-39.062,-33.691,-52.246,-36.621,0.000,0
1601748340.063,-44.434,-30.273,-47.363,-31.738,0.000,0
1601748340.067,-42.480,-26.855,-44.434,-37.109,0.000,0
1601748340.070,-44.434,-29.785,-48.828,-51.270,0.000,0
1601748340.074,-45.410,-26.367,-49.805,-46.875,0.000,0
1601748340.078,-47.363,-31.250,-56.152,-45.410,0.000,0
1601748340.082,-54.688,-37.109,-52.734,-61.035,0.000,0
1601748340.086,-56.641,-36.133,-49.316,-63.965,0.000,0
1601748340.090,-53.223,-35.156,-50.293,-54.688,0.000,0
1601748340.094,-50.293,-33.203,-49.805,-49.316,0.000,0
1601748340.098,-48.828,-30.762,-46.387,-46.387,0.000,0
1601748340.102,-50.293,-29.785,-45.410,-47.852,0.000,0
1601748340.106,-49.805,-29.297,-48.828,-51.758,0.000,0
1601748340.110,-47.852,-29.297,-51.270,-51.270,0.000,0
1601748340.113,-49.805,-29.297,-57.129,-49.805,0.000,0
1601748340.117,-47.852,-31.738,-56.641,-41.992,0.000,0
1601748340.121,-43.945,-34.180,-56.641,-46.875,0.000,0
1601748340.125,-43.457,-32.227,-58.105,-50.293,0.000,0
1601748340.129,-38.086,-31.738,-54.199,-46.875,0.000,0
1601748340.133,-36.133,-30.762,-47.363,-49.316,0.000,0
1601748340.137,-45.898,-30.762,-44.922,-40.527,0.000,0
1601748340.141,-47.363,-33.691,-46.387,-47.852,0.000,0
1601748340.145,-46.875,-34.668,-47.363,-54.199,0.000,0
1601748340.149,-52.734,-35.645,-45.410,-41.504,0.000,0
1601748340.152,-45.410,-32.227,-46.875,-36.621,0.000,0
1601748340.156,-38.086,-32.715,-45.410,-35.156,0.000,0
1601748340.160,-40.039,-31.250,-46.387,-28.809,0.000,0
1601748340.164,-35.645,-27.832,-48.828,-34.668,0.000,0
1601748340.168,-42.480,-30.762,-47.852,-41.016,0.000,0
1601748340.172,-45.410,-32.227,-51.270,-35.645,0.000,0
1601748340.176,-35.645,-30.273,-47.363,-30.762,0.000,0
1601748340.180,-39.062,-30.762,-50.781,-46.387,0.000,0
1601748340.184,-40.527,-29.785,-49.316,-55.664,0.000,0
1601748340.188,-43.457,-27.344,-49.805,-57.129,0.000,0
1601748340.192,-48.828,-29.297,-58.105,-49.805,0.000,0
1601748340.195,-46.387,-29.785,-55.664,-29.297,0.000,0
1601748340.199,-41.992,-29.297,-49.805,-34.180,0.000,0
1601748340.203,-33.691,-31.250,-49.805,-41.992,0.000,0
1601748340.207,-42.480,-32.227,-51.758,-36.133,0.000,0
1601748340.211,-49.316,-32.715,-51.758,-34.180,0.000,0
1601748340.215,-40.039,-33.691,-50.293,-29.297,0.000,0
1601748340.219,-44.922,-34.180,-52.734,-38.086,0.000,0
1601748340.223,-49.316,-33.691,-49.316,-45.410,0.000,0
1601748340.227,-38.574,-32.715,-45.410,-33.691,0.000,0
1601748340.231,-28.809,-25.879,-45.898,-35.156,0.000,0
1601748340.235,-30.273,-25.391,-41.016,-30.273,0.000,0
1601748340.238,-30.762,-27.832,-40.039,-26.367,0.000,0
1601748340.242,-38.086,-27.832,-42.969,-41.504,0.000,0
1601748340.246,-48.340,-28.809,-42.480,-37.598,0.000,0
1601748340.250,-46.387,-27.832,-41.992,-33.691,0.000,0
1601748340.254,-42.480,-29.785,-41.992,-30.762,0.000,0
1601748340.258,-46.387,-32.227,-41.504,-21.973,0.000,0
1601748340.262,-51.270,-35.156,-38.086,-32.227,0.000,0
1601748340.266,-46.387,-33.691,-40.039,-31.738,0.000,0
1601748340.270,-42.969,-33.203,-43.945,-28.320,0.000,0
1601748340.274,-43.457,-36.133,-41.016,-29.297,0.000,0
1601748340.277,-44.922,-34.668,-47.363,-36.621,0.000,0
1601748340.281,-49.316,-28.809,-45.898,-52.246,0.000,0
1601748340.285,-44.434,-25.391,-40.527,-48.828,0.000,0
1601748340.289,-46.875,-33.691,-38.086,-38.086,0.000,0
1601748340.293,-55.176,-34.668,-42.480,-44.922,0.000,0
1601748340.297,-55.176,-29.297,-47.363,-48.828,0.000,0
1601748340.301,-45.410,-27.832,-40.039,-40.039,0.000,0
1601748340.305,-42.969,-28.809,-37.109,-44.922,0.000,0
1601748340.309,-44.922,-25.391,-44.434,-45.410,0.000,0
1601748340.313,-38.086,-22.949,-45.898,-39.062,0.000,0
1601748340.317,-37.598,-22.949,-41.016,-35.156,0.000,0
1601748340.320,-36.621,-20.996,-41.992,-34.668,0.000,0
1601748340.324,-38.574,-21.484,-44.922,-43.457,0.000,0
1601748340.328,-43.945,-22.461,-45.898,-45.410,0.000,0
1601748340.332,-40.039,-22.949,-48.828,-39.551,0.000,0
1601748340.336,-40.527,-22.461,-50.781,-36.621,0.000,0
1601748340.340,-45.410,-22.461,-51.270,-42.969,0.000,0
1601748340.344,-46.387,-26.855,-50.781,-54.199,0.000,0
1601748340.348,-42.480,-25.879,-49.805,-57.129,0.000,0
1601748340.352,-47.363,-27.832,-43.945,-54.199,0.000,0
1601748340.356,-50.781,-31.738,-40.527,-47.363,0.000,0
1601748340.360,-47.852,-30.273,-45.410,-59.082,0.000,0
1601748340.363,-43.457,-27.344,-47.852,-68.359,0.000,0
1601748340.367,-40.039,-20.996,-46.387,-62.988,0.000,0
1601748340.371,-40.039,-17.578,-41.992,-44.434,0.000,0
1601748340.375,-37.598,-22.461,-41.992,-37.109,0.000,0
1601748340.379,-40.039,-24.902,-43.457,-55.664,0.000,0
1601748340.383,-41.016,-20.996,-41.504,-63.477,0.000,0
1601748340.387,-41.016,-26.855,-39.062,-66.406,0.000,0
1601748340.391,-42.969,-34.668,-37.109,-55.176,0.000,0
1601748340.395,-38.574,-28.809,-35.156,-43.945,0.000,0
1601748340.399,-40.527,-31.250,-37.598,-44.434,0.000,0
1601748340.402,-54.688,-34.668,-41.992,-54.199,0.000,0
1601748340.406,-55.664,-29.297,-41.992,-56.152,0.000,0
1601748340.410,-49.316,-31.738,-39.062,-46.875,0.000,0
1601748340.414,-44.434,-31.250,-37.109,-35.156,0.000,0
1601748340.418,-40.527,-32.227,-38.086,-37.109,0.000,0
1601748340.422,-48.340,-34.668,-36.621,-56.152,0.000,0
1601748340.426,-52.734,-34.180,-39.062,-64.453,0.000,0
1601748340.430,-53.223,-33.691,-43.457,-59.570,0.000,0
1601748340.434,-54.688,-31.738,-44.434,-51.758,0.000,0
1601748340.438,-50.781,-32.715,-44.922,-49.805,0.000,0
1601748340.442,-54.199,-34.668,-48.828,-59.570,0.000,0
1601748340.445,-47.852,-34.180,-48.340,-60.547,0.000,0
1601748340.449,-44.922,-31.250,-44.434,-60.547,0.000,0
1601748340.453,-50.293,-33.691,-41.992,-50.781,0.000,0
1601748340.457,-47.363,-35.645,-47.363,-41.992,0.000,0
1601748340.461,-49.805,-32.227,-47.363,-50.293,0.000,0
1601748340.465,-54.199,-33.203,-46.875,-56.641,0.000,0
1601748340.469,-54.199,-34.668,-49.805,-58.594,0.000,0
1601748340.473,-45.410,-32.227,-48.340,-48.340,0.000,0
1601748340.477,-42.480,-31.250,-51.758,-49.805,0.000,0
1601748340.481,-52.246,-34.180,-55.664,-62.012,0.000,0
1601748340.485,-52.246,-34.180,-52.734,-64.453,0.000,0
1601748340.488,-50.293,-28.809,-53.711,-62.988,0.000,0
1601748340.492,-55.176,-23.926,-56.641,-60.547,0.000,0
1601748340.496,-51.270,-24.902,-49.805,-42.969,0.000,0
1601748340.500,-47.363,-28.320,-50.781,-43.457,0.000,0
1601748340.504,-52.246,-26.855,-53.711,-56.641,0.000,0
1601748340.508,-51.270,-25.879,-52.246,-49.316,0.000,0
1601748340.512,-50.293,-25.391,-49.805,-35.645,0.000,0
1601748340.516,-53.711,-31.250,-45.898,-35.156,0.000,0
1601748340.520,-57.617,-35.156,-49.316,-49.316,0.000,0
1601748340.524,-59.570,-31.738,-55.664,-53.711,0.000,0
1601748340.527,-63.477,-30.762,-59.082,-65.918,0.000,0
1601748340.531,-61.035,-30.273,-59.082,-60.547,0.000,0
1601748340.535,-49.805,-24.902,-51.270,-47.852,0.000,0
1601748340.539,-43.945,-21.973,-45.898,-43.945,0.000,0
1601748340.543,-45.410,-28.809,-54.199,-45.898,0.000,0
1601748340.547,-53.711,-31.738,-52.246,-55.176,0.000,0
1601748340.551,-56.641,-36.621,-50.293,-45.410,0.000,0
1601748340.555,-52.734,-39.062,-58.105,-32.227,0.000,0
1601748340.559,-53.711,-35.645,-56.641,-34.180,0.000,0
1601748340.563,-53.711,-34.180,-49.805,-38.574,0.000,0
1601748340.567,-55.664,-34.180,-51.270,-52.734,0.000,0
1601748340.570,-57.617,-35.645,-54.688,-55.176,0.000,0
1601748340.574,-57.617,-35.645,-50.781,-55.176,0.000,0
1601748340.578,-54.199,-35.156,-48.828,-53.711,0.000,0
1601748340.582,-57.617,-34.668,-54.199,-53.711,0.000,0
1601748340.586,-65.918,-40.527,-52.734,-61.523,0.000,0
1601748340.590,-61.035,-40.527,-50.293,-57.617,0.000,0
1601748340.594,-53.223,-30.762,-53.711,-49.805,0.000,0
1601748340.598,-51.758,-27.832,-56.152,-53.223,0.000,0
1601748340.602,-49.316,-23.926,-53.711,-59.082,0.000,0
1601748340.606,-45.898,-25.879,-51.270,-54.688,0.000,0
1601748340.610,-46.875,-30.273,-47.363,-46.387,0.000,0
1601748340.613,-40.527,-28.320,-41.504,-40.039,0.000,0
1601748340.617,-37.109,-27.344,-42.480,-34.180,0.000,0
1601748340.621,-43.945,-24.414,-42.969,-34.668,0.000,0
1601748340.625,-51.758,-26.855,-43.457,-51.758,0.000,0
1601748340.629,-50.781,-26.855,-41.016,-57.617,0.000,0
1601748340.633,-43.945,-20.020,-38.086,-43.945,0.000,0
1601748340.637,-45.898,-22.949,-41.504,-42.969,0.000,0
1601748340.641,-55.664,-25.879,-37.598,-48.340,0.000,0
1601748340.645,-58.594,-30.273,-36.621,-43.457,0.000,0
1601748340.649,-50.781,-30.273,-45.410,-43.945,0.000,0
1601748340.652,-50.781,-28.809,-48.828,-53.223,0.000,0
1601748340.656,-47.363,-31.738,-47.363,-48.828,0.000,0
1601748340.660,-46.875,-27.344,-47.363,-49.805,0.000,0
1601748340.664,-54.199,-30.273,-52.734,-62.012,0.000,0
1601748340.668,-53.711,-35.645,-56.641,-63.965,0.000,0
1601748340.672,-45.898,-30.273,-52.734,-50.293,0.000,0
1601748340.676,-42.480,-28.809,-45.898,-39.551,0.000,0
1601748340.680,-44.922,-31.250,-48.340,-44.434,0.000,0
1601748340.684,-47.852,-32.715,-51.758,-53.711,0.000,0
1601748340.688,-46.387,-30.273,-45.410,-50.293,0.000,0
1601748340.692,-46.387,-26.855,-44.434,-39.062,0.000,0
1601748340.695,-48.340,-31.738,-43.457,-34.180,0.000,0
1601748340.699,-48.828,-31.250,-45.410,-36.621,0.000,0
1601748340.703,-51.270,-23.438,-48.828,-42.969,0.000,0
1601748340.707,-52.246,-20.020,-48.340,-41.016,0.000,0
1601748340.711,-47.852,-21.973,-54.199,-41.016,0.000,0
1601748340.715,-47.363,-27.344,-55.664,-36.621,0.000,0
1601748340.719,-49.805,-27.832,-50.293,-36.621,0.000,0
1601748340.723,-43.457,-26.855,-46.387,-46.387,0.000,0
1601748340.727,-34.668,-25.879,-45.410,-39.551,0.000,0
1601748340.731,-35.645,-26.855,-48.828,-36.133,0.000,0
1601748340.735,-34.668,-30.762,-48.828,-47.363,0.000,0
1601748340.738,-35.645,-28.809,-53.223,-50.781,0.000,0
1601748340.742,-40.039,-30.762,-59.570,-49.316,0.000,0
1601748340.746,-38.574,-33.203,-52.734,-46.387,0.000,0
1601748340.750,-39.551,-31.738,-48.340,-39.551,0.000,1
1601748340.754,-42.480,-28.809,-52.246,-41.504,0.000,0
1601748340.758,-43.945,-27.344,-48.828,-49.316,0.000,0
1601748340.762,-45.898,-27.344,-45.410,-58.105,0.000,0
1601748340.766,-47.852,-26.367,-45.410,-63.965,0.000,0
1601748340.770,-50.293,-22.949,-44.434,-57.129,0.000,0
1601748340.774,-49.316,-23.438,-45.410,-45.410,0.000,0
1601748340.777,-42.480,-31.250,-47.363,-36.133,0.000,0
1601748340.781,-43.457,-37.109,-47.363,-47.852,0.000,0
1601748340.785,-44.434,-34.180,-43.945,-50.781,0.000,0
1601748340.789,-38.574,-30.762,-40.527,-40.039,0.000,0
1601748340.793,-37.109,-29.785,-44.434,-39.551,0.000,0
1601748340.797,-41.016,-32.715,-49.316,-43.457,0.000,0
1601748340.801,-46.387,-32.227,-46.387,-47.363,0.000,0
1601748340.805,-47.852,-27.344,-45.898,-43.945,0.000,0
1601748340.809,-51.270,-26.855,-47.363,-50.293,0.000,0
1601748340.813,-47.852,-28.320,-46.875,-49.316,0.000,0
1601748340.817,-45.410,-27.344,-43.457,-32.715,0.000,0
1601748340.820,-56.152,-28.320,-44.434,-46.875,0.000,0
1601748340.824,-55.664,-28.809,-46.875,-54.199,0.000,0
1601748340.828,-41.504,-26.367,-42.480,-45.410,0.000,0
1601748340.832,-48.340,-31.250,-46.387,-58.105,0.000,0
1601748340.836,-50.781,-32.227,-50.293,-55.664,0.000,0
1601748340.840,-39.062,-27.344,-45.410,-52.734,0.000,0
1601748340.844,-41.504,-26.367,-45.410,-55.664,0.000,0
1601748340.848,-44.434,-27.832,-48.828,-50.781,0.000,0
1601748340.852,-41.016,-24.902,-49.316,-44.434,0.000,0
1601748340.856,-40.527,-26.855,-48.828,-37.598,0.000,0
1601748340.860,-46.387,-35.156,-49.316,-27.832,0.000,0
1601748340.863,-50.781,-32.227,-50.293,-39.551,0.000,0
1601748340.867,-52.734,-26.855,-47.852,-56.152,0.000,0
1601748340.871,-54.688,-28.809,-46.387,-55.176,0.000,0
1601748340.875,-51.758,-30.762,-47.363,-57.617,0.000,0
1601748340.879,-49.805,-32.227,-44.922,-55.664,0.000,0
1601748340.883,-53.223,-34.180,-46.875,-55.176,0.000,0
1601748340.887,-55.664,-34.180,-51.270,-58.594,0.000,0
1601748340.891,-53.223,-32.715,-50.781,-53.223,0.000,0
1601748340.895,-50.781,-30.762,-52.246,-49.316,0.000,0
1601748340.899,-51.270,-30.273,-54.199,-44.922,0.000,0
1601748340.902,-50.293,-30.762,-51.270,-36.621,0.000,0
1601748340.906,-45.898,-29.297,-46.387,-36.133,0.000,0
1601748340.910,-50.293,-29.297,-48.828,-40.527,0.000,0
1601748340.914,-51.758,-32.227,-49.316,-33.691,0.000,0
1601748340.918,-46.875,-31.250,-50.293,-26.855,0.000,0
1601748340.922,-42.969,-31.250,-50.781,-30.762,0.000,0
1601748340.926,-50.781,-33.691,-45.410,-42.969,0.000,0
1601748340.930,-60.059,-35.156,-47.852,-46.387,0.000,0
1601748340.934,-59.082,-36.133,-51.758,-38.574,0.000,0
1601748340.938,-60.059,-33.203,-42.969,-34.180,0.000,0
1601748340.942,-56.152,-28.809,-36.621,-33.691,0.000,0
1601748340.945,-52.734,-27.832,-44.434,-38.086,0.000,0
1601748340.949,-50.781,-29.785,-46.387,-44.434,0.000,0
1601748340.953,-50.781,-31.738,-44.922,-35.156,0.000,0
1601748340.957,-54.688,-31.738,-48.828,-27.832,0.000,0
1601748340.961,-54.688,-31.738,-47.852,-40.527,0.000,0
1601748340.965,-50.781,-32.227,-46.387,-46.387,0.000,0
1601748340.969,-44.922,-27.832,-44.922,-42.969,0.000,0
1601748340.973,-39.062,-24.902,-46.387,-36.133,0.000,0
1601748340.977,-33.203,-27.832,-46.875,-32.715,0.000,0
1601748340.981,-42.480,-28.809,-43.945,-41.992,0.000,0
1601748340.985,-48.340,-29.297,-38.574,-51.270,0.000,0
1601748340.988,-49.316,-28.809,-38.086,-46.875,0.000,0
1601748340.992,-50.293,-34.180,-43.457,-35.645,0.000,0
1601748340.996,-47.852,-38.574,-45.410,-32.227,0.000,0
1601748341.000,-48.340,-44.434,-44.922,-39.551,0.000,0
1601748341.004,-51.270,-43.457,-40.527,-55.176,0.000,0
1601748341.008,-49.805,-32.227,-40.527,-53.711,0.000,0
1601748341.012,-44.434,-24.902,-42.969,-37.598,0.000,0
1601748341.016,-48.340,-31.738,-44.434,-33.203,0.000,0
1601748341.020,-53.223,-40.527,-41.016,-40.039,0.000,0
1601748341.024,-59.570,-35.645,-41.016,-45.410,0.000,0
1601748341.027,-66.406,-35.156,-46.875,-41.992,0.000,0
1601748341.031,-60.059,-36.621,-45.898,-32.227,0.000,0
1601748341.035,-50.293,-34.668,-43.457,-32.227,0.000,0
1601748341.039,-52.246,-36.621,-44.922,-49.316,0.000,0
1601748341.043,-56.641,-40.527,-43.945,-52.246,0.000,0
1601748341.047,-59.082,-35.156,-42.969,-47.363,0.000,0
1601748341.051,-53.223,-31.250,-42.480,-40.039,0.000,0
1601748341.055,-48.340,-28.809,-44.434,-26.367,0.000,0
1601748341.059,-48.828,-26.367,-41.992,-32.715,0.000,0
1601748341.063,-48.340,-26.367,-42.480,-41.992,0.000,0
1601748341.067,-46.875,-27.344,-45.410,-37.109,0.000,0
1601748341.070,-49.316,-25.391,-41.992,-33.691,0.000,0
1601748341.074,-50.781,-24.902,-42.480,-26.855,0.000,0
1601748341.078,-43.457,-26.855,-41.016,-25.879,0.000,0
1601748341.082,-46.387,-27.832,-41.016,-42.480,0.000,0
1601748341.086,-54.199,-30.273,-46.875,-59.570,0.000,0
1601748341.090,-53.711,-29.297,-48.828,-62.500,0.000,0
1601748341.094,-52.734,-30.273,-46.387,-54.199,0.000,0
1601748341.098,-50.781,-33.691,-45.898,-46.387,0.000,0
1601748341.102,-50.293,-32.715,-50.293,-52.734,0.000,0
1601748341.106,-49.316,-30.273,-51.758,-52.246,0.000,0
1601748341.110,-46.875,-34.668,-47.852,-47.852,0.000,0
1601748341.113,-44.922,-34.668,-41.992,-47.363,0.000,0
1601748341.117,-49.805,-35.645,-45.410,-51.758,0.000,0
1601748341.121,-53.711,-39.062,-50.781,-65.430,0.000,0
1601748341.125,-51.758,-30.762,-44.922,-67.871,0.000,0
1601748341.129,-50.781,-31.738,-42.969,-56.152,0.000,0
1601748341.133,-49.316,-33.691,-45.410,-48.828,0.000,0
1601748341.137,-47.363,-26.855,-50.781,-49.316,0.000,0
1601748341.141,-50.781,-30.273,-52.246,-45.410,0.000,0
1601748341.145,-60.547,-35.156,-45.898,-51.758,0.000,0
1601748341.149,-64.453,-33.691,-50.781,-56.152,0.000,0
1601748341.152,-54.688,-32.227,-51.270,-44.922,0.000,0
1601748341.156,-55.176,-34.180,-49.805,-40.039,0.000,0
1601748341.160,-63.477,-40.039,-52.734,-44.434,0.000,0
1601748341.164,-59.082,-40.527,-50.293,-57.129,0.000,0
1601748341.168,-56.641,-36.133,-53.711,-66.406,0.000,0
1601748341.172,-50.293,-32.715,-54.199,-51.270,0.000,0
1601748341.176,-48.340,-29.297,-54.688,-41.504,0.000,0
1601748341.180,-50.293,-29.297,-50.293,-50.293,0.000,0
1601748341.184,-47.852,-28.809,-44.434,-52.734,0.000,0
1601748341.188,-49.316,-29.297,-48.340,-49.805,0.000,0
1601748341.192,-44.434,-29.785,-50.781,-52.246,0.000,0
1601748341.195,-45.898,-23.438,-51.270,-46.875,0.000,0
1601748341.199,-49.805,-22.461,-49.805,-42.480,0.000,0
1601748341.203,-43.457,-26.855,-47.363,-51.270,0.000,0
1601748341.207,-41.016,-30.273,-48.828,-48.828,0.000,0
1601748341.211,-39.551,-33.203,-48.828,-38.574,0.000,0
1601748341.215,-33.203,-30.273,-48.828,-33.691,0.000,0
1601748341.219,-33.203,-29.785,-48.340,-32.227,0.000,0
1601748341.223,-40.039,-32.715,-43.457,-35.156,0.000,0
1601748341.227,-42.969,-31.250,-42.969,-43.945,0.000,0
1601748341.231,-39.062,-29.297,-43.457,-39.062,0.000,0
1601748341.235,-41.992,-29.785,-43.945,-31.738,0.000,0
1601748341.238,-43.457,-31.250,-45.898,-35.645,0.000,0
1601748341.242,-44.434,-30.273,-46.387,-44.922,0.000,0
1601748341.246,-48.340,-30.762,-49.805,-51.758,0.000,0
1601748341.250,-53.223,-33.203,-53.223,-49.805,0.000,0
1601748341.254,-50.293,-33.691,-47.852,-43.457,0.000,0
1601748341.258,-43.457,-29.785,-45.898,-31.738,0.000,0
1601748341.262,-50.293,-32.227,-45.410,-39.551,0.000,0
1601748341.266,-56.152,-34.668,-42.969,-52.246,0.000,0
1601748341.270,-52.246,-34.668,-46.387,-46.875,0.000,0
1601748341.274,-50.293,-34.668,-45.410,-43.945,0.000,0
1601748341.277,-53.223,-34.180,-41.016,-44.434,0.000,0
1601748341.281,-51.270,-31.738,-41.992,-53.223,0.000,0
1601748341.285,-49.316,-30.762,-41.992,-62.012,0.000,0
1601748341.289,-53.223,-32.227,-43.945,-65.918,0.000,0
1601748341.293,-54.199,-31.250,-42.969,-61.035,0.000,0
1601748341.297,-57.129,-30.273,-43.457,-57.617,0.000,0
1601748341.301,-58.105,-33.203,-46.875,-60.059,0.000,0
1601748341.305,-54.199,-37.109,-41.992,-61.035,0.000,0
1601748341.309,-60.547,-37.598,-38.574,-55.664,0.000,0
1601748341.313,-58.594,-33.203,-39.551,-39.551,0.000,0
1601748341.317,-50.781,-33.203,-42.480,-45.898,0.000,0
1601748341.320,-57.617,-31.250,-44.922,-57.617,0.000,0
1601748341.324,-54.688,-31.738,-43.457,-49.316,0.000,0
1601748341.328,-45.410,-29.785,-42.480,-43.457,0.000,0
1601748341.332,-43.945,-24.414,-45.898,-48.340,0.000,0
1601748341.336,-39.062,-27.344,-43.945,-43.457,0.000,0
1601748341.340,-37.109,-26.855,-37.109,-39.062,0.000,0
1601748341.344,-43.457,-30.762,-37.109,-46.387,0.000,0
1601748341.348,-49.805,-30.762,-41.992,-41.016,0.000,0
1601748341.352,-52.734,-27.344,-44.922,-34.180,0.000,0
1601748341.356,-46.875,-31.250,-44.434,-28.320,0.000,0
1601748341.360,-44.434,-28.809,-45.410,-35.645,0.000,0
1601748341.363,-51.270,-24.902,-45.410,-51.270,0.000,0
1601748341.367,-48.340,-31.738,-40.527,-41.992,0.000,0
1601748341.371,-44.434,-30.273,-40.527,-39.551,0.000,0
1601748341.375,-49.316,-27.832,-45.410,-48.828,0.000,0
1601748341.379,-50.781,-31.738,-47.363,-43.457,0.000,0
1601748341.383,-50.293,-28.320,-48.828,-51.270,0.000,0
1601748341.387,-52.734,-31.250,-47.852,-49.805,0.000,0
1601748341.391,-50.293,-35.156,-46.387,-36.621,0.000,0
1601748341.395,-42.480,-31.250,-49.316,-40.527,0.000,0
1601748341.399,-39.551,-29.297,-46.875,-44.922,0.000,0
1601748341.402,-42.969,-28.809,-43.457,-43.457,0.000,0
1601748341.406,-47.363,-28.320,-43.457,-41.992,0.000,0
1601748341.410,-51.758,-30.762,-46.387,-45.898,0.000,0
1601748341.414,-50.293,-31.738,-49.805,-43.945,0.000,0
1601748341.418,-50.781,-32.227,-50.293,-37.109,0.000,0
1601748341.422,-49.805,-29.785,-50.293,-41.016,0.000,0
1601748341.426,-47.852,-25.391,-48.340,-43.945,0.000,0
1601748341.430,-38.574,-27.344,-44.922,-22.461,0.000,0
1601748341.434,-40.039,-32.227,-39.551,-13.184,0.000,0
1601748341.438,-58.105,-31.738,-37.598,-32.227,0.000,0
1601748341.442,-61.523,-37.109,-40.527,-33.691,0.000,0
1601748341.445,-49.316,-37.109,-44.434,-33.203,0.000,0
1601748341.449,-53.223,-34.668,-48.340,-43.945,0.000,0
1601748341.453,-57.617,-36.621,-54.688,-42.969,0.000,0
1601748341.457,-51.758,-32.715,-55.176,-43.457,0.000,0
1601748341.461,-57.129,-31.738,-53.223,-45.410,0.000,0
1601748341.465,-63.477,-37.109,-48.340,-44.922,0.000,0
1601748341.469,-58.594,-37.598,-44.922,-34.180,0.000,0
1601748341.473,-51.270,-33.203,-43.457,-22.461,0.000,0
1601748341.477,-50.293,-36.133,-42.969,-29.297,0.000,0
1601748341.481,-57.617,-39.062,-43.457,-38.086,0.000,0
1601748341.485,-61.523,-41.016,-46.387,-39.062,0.000,0
1601748341.488,-55.176,-37.109,-48.340,-32.715,0.000,0
1601748341.492,-53.223,-37.109,-48.340,-27.832,0.000,0
1601748341.496,-51.270,-38.086,-49.805,-26.855,0.000,0
1601748341.500,-53.223,-33.203,-50.293,-31.250,0.000,0
1601748341.504,-59.570,-35.645,-47.363,-31.738,0.000,0
1601748341.508,-59.082,-37.598,-47.852,-28.320,0.000,0
1601748341.512,-48.828,-28.809,-51.270,-25.879,0.000,0
1601748341.516,-42.969,-24.902,-49.316,-19.531,0.000,0
1601748341.520,-40.527,-31.250,-52.246,-16.113,0.000,0
1601748341.524,-37.109,-34.668,-54.199,-24.414,0.000,0
1601748341.527,-41.016,-34.180,-51.270,-25.391,0.000,0
1601748341.531,-39.062,-33.203,-47.363,-17.090,0.000,0
1601748341.535,-39.062,-32.227,-46.875,-16.602,0.000,0
1601748341.539,-36.133,-33.691,-51.758,-18.066,0.000,0
1601748341.543,-33.691,-35.156,-56.641,-18.066,0.000,0
1601748341.547,-37.109,-30.762,-57.617,-23.926,0.000,0
1601748341.551,-37.598,-29.297,-60.059,-26.855,0.000,0
1601748341.555,-37.598,-31.250,-58.594,-19.043,0.000,0
1601748341.559,-47.852,-34.668,-54.199,-12.695,0.000,0
1601748341.563,-52.246,-34.180,-53.711,-20.508,0.000,0
1601748341.567,-49.316,-31.738,-55.176,-32.715,0.000,0
1601748341.570,-49.805,-30.762,-54.199,-30.762,0.000,0
1601748341.574,-42.969,-27.344,-50.293,-14.648,0.000,0
1601748341.578,-42.969,-27.832,-46.875,-15.137,0.000,0
1601748341.582,-44.922,-31.738,-42.480,-18.555,0.000,0
1601748341.586,-47.852,-32.715,-46.875,-13.184,0.000,0
1601748341.590,-48.340,-31.250,-49.316,-1.465,0.000,0
1601748341.594,-38.574,-30.762,-44.434,10.254,0.000,0
1601748341.598,-33.691,-29.785,-41.016,2.441,0.000,0
1601748341.602,-34.180,-28.809,-46.387,-6.348,0.000,0
1601748341.606,-37.109,-27.832,-47.852,-12.695,0.000,0
1601748341.610,-42.969,-27.344,-46.875,-15.137,0.000,0
1601748341.613,-47.363,-26.367,-48.340,-10.254,0.000,0
1601748341.617,-46.875,-24.414,-42.480,4.395,0.000,0
1601748341.621,-48.340,-27.344,-46.875,-4.395,0.000,0
1601748341.625,-48.828,-32.227,-47.852,-17.090,0.000,0
1601748341.629,-51.270,-30.273,-49.316,-9.277,0.000,0
1601748341.633,-48.828,-32.227,-54.199,3.906,0.000,0
1601748341.637,-39.551,-34.180,-48.828,4.395,0.000,0
1601748341.641,-43.457,-30.762,-49.316,-5.371,0.000,0
1601748341.645,-53.711,-33.203,-49.805,0.488,0.000,0
1601748341.649,-55.176,-35.645,-52.246,1.953,0.000,0
1601748341.652,-51.758,-35.156,-54.199,0.000,0.000,0
1601748341.656,-45.410,-32.227,-52.734,1.465,0.000,0
1601748341.660,-50.293,-29.297,-55.176,-10.254,0.000,0
1601748341.664,-61.035,-31.738,-54.688,-24.902,0.000,0
1601748341.668,-60.059,-33.691,-54.688,-24.414,0.000,0
1601748341.672,-59.082,-34.668,-58.105,-19.531,0.000,0
1601748341.676,-66.406,-38.086,-56.152,-17.090,0.000,0
1601748341.680,-74.219,-38.574,-56.641,-18.555,0.000,0
1601748341.684,-76.660,-38.086,-61.523,-30.273,0.000,0
1601748341.688,-76.172,-41.016,-57.129,-29.785,0.000,0
1601748341.692,-77.637,-37.598,-53.223,-23.926,0.000,0
1601748341.695,-74.707,-36.133,-57.617,-10.254,0.000,0
1601748341.699,-67.383,-38.086,-58.594,-6.348,0.000,0
1601748341.703,-74.219,-37.598,-57.617,-25.879,0.000,0
1601748341.707,-74.707,-33.203,-55.664,-26.367,0.000,0
1601748341.711,-74.707,-32.715,-56.641,-24.414,0.000,0
1601748341.715,-78.125,-39.062,-58.105,-24.902,0.000,0
1601748341.719,-73.730,-33.691,-58.105,-40.039,0.000,0
1601748341.723,-79.590,-31.250,-57.129,-55.664,0.000,0
1601748341.727,-81.055,-38.086,-58.105,-46.875,0.000,0
1601748341.731,-69.824,-31.250,-60.547,-35.645,0.000,0
1601748341.735,-67.383,-31.250,-56.152,-29.785,0.000,0
1601748341.738,-65.918,-37.109,-52.734,-20.020,0.000,0
1601748341.742,-63.477,-33.203,-51.270,-18.066,0.000,0
1601748341.746,-66.406,-30.762,-51.270,-24.414,0.000,0
1601748341.750,-60.059,-36.621,-53.223,-21.484,0.000,0
1601748341.754,-48.340,-39.551,-52.734,-19.531,0.000,0
1601748341.758,-49.316,-35.156,-55.176,-18.555,0.000,0
1601748341.762,-64.453,-36.133,-57.129,-29.297,0.000,0
1601748341.766,-66.406,-38.086,-52.734,-35.645,0.000,0
1601748341.770,-60.547,-33.691,-51.270,-27.344,0.000,0
1601748341.774,-57.129,-27.832,-50.293,-29.297,0.000,0
1601748341.777,-57.129,-28.320,-51.758,-27.832,0.000,0
1601748341.781,-63.477,-34.668,-52.734,-28.809,0.000,0
1601748341.785,-61.523,-38.086,-53.711,-31.738,0.000,0
1601748341.789,-57.129,-39.551,-59.082,-25.391,0.000,0
1601748341.793,-58.594,-39.062,-59.082,-22.461,0.000,0
1601748341.797,-53.223,-38.086,-57.617,-16.602,0.000,0
1601748341.801,-47.363,-35.156,-54.199,-18.066,0.000,0
1601748341.805,-45.410,-29.785,-51.758,-32.715,0.000,0
1601748341.809,-45.898,-27.344,-55.664,-24.414,0.000,0
1601748341.813,-43.945,-24.414,-54.688,-9.277,0.000,0
1601748341.817,-40.527,-20.020,-51.758,-5.371,0.000,0
1601748341.820,-44.434,-23.438,-54.688,-24.902,0.000,0
1601748341.824,-48.828,-27.832,-53.223,-46.387,0.000,0
1601748341.828,-52.734,-26.367,-53.223,-39.062,0.000,0
1601748341.832,-54.199,-24.414,-55.664,-22.949,0.000,0
1601748341.836,-55.664,-25.391,-54.199,-18.555,0.000,0
1601748341.840,-50.293,-29.297,-55.176,-25.391,0.000,0
1601748341.844,-45.410,-29.297,-50.781,-25.879,0.000,0
1601748341.848,-43.945,-25.879,-48.340,-23.438,0.000,0
1601748341.852,-38.574,-27.832,-50.293,-24.902,0.000,0
1601748341.856,-40.527,-31.250,-48.340,-16.602,0.000,0
1601748341.860,-41.504,-28.320,-50.781,-7.812,0.000,0
1601748341.863,-49.805,-31.250,-53.223,-15.137,0.000,0
1601748341.867,-56.152,-32.715,-52.734,-23.438,0.000,0
1601748341.871,-51.270,-29.297,-51.270,-21.973,0.000,0
1601748341.875,-46.387,-26.367,-45.898,-15.625,0.000,0
1601748341.879,-47.363,-24.902,-47.852,-18.555,0.000,0
1601748341.883,-57.129,-29.785,-49.316,-29.297,0.000,0
1601748341.887,-59.570,-31.250,-48.828,-27.832,0.000,0
1601748341.891,-59.570,-33.203,-45.898,-18.066,0.000,0
1601748341.895,-55.664,-28.809,-43.945,-20.508,0.000,0
1601748341.899,-50.293,-25.391,-47.363,-20.020,0.000,0
1601748341.902,-49.316,-24.414,-47.363,-25.391,0.000,0
1601748341.906,-42.480,-20.508,-45.410,-30.273,0.000,0
1601748341.910,-42.969,-22.461,-50.293,-19.531,0.000,1
1601748341.914,-47.852,-24.414,-54.199,-15.137,0.000,0
1601748341.918,-44.434,-30.273,-47.852,-18.066,0.000,0
1601748341.922,-44.434,-30.273,-45.898,-10.742,0.000,0
1601748341.926,-48.340,-26.855,-46.875,-8.789,0.000,0
1601748341.930,-54.688,-34.668,-49.316,-8.789,0.000,0
1601748341.934,-52.246,-36.621,-54.199,-17.090,0.000,0
1601748341.938,-53.711,-37.109,-51.758,-22.461,0.000,0
1601748341.942,-63.965,-33.691,-51.758,-27.832,0.000,0
1601748341.945,-58.105,-30.762,-54.199,-34.180,0.000,0
1601748341.949,-52.246,-29.785,-50.293,-23.438,0.000,0
1601748341.953,-51.758,-28.809,-49.805,-25.391,0.000,0
1601748341.957,-54.688,-29.297,-52.246,-30.273,0.000,0
1601748341.961,-56.641,-24.902,-53.711,-28.809,0.000,0
1601748341.965,-51.758,-23.438,-51.270,-27.344,0.000,0
1601748341.969,-47.852,-27.344,-51.270,-27.832,0.000,0
1601748341.973,-45.410,-31.738,-51.758,-28.809,0.000,0
1601748341.977,-45.410,-35.645,-52.246,-25.879,0.000,0
1601748341.981,-44.434,-29.297,-54.199,-26.855,0.000,0
1601748341.985,-47.363,-27.832,-57.617,-29.297,0.000,0
1601748341.988,-52.246,-31.250,-61.523,-30.762,0.000,0
1601748341.992,-48.828,-32.227,-60.547,-28.809,0.000,0
1601748341.996,-50.781,-32.227,-57.617,-24.902,0.000,0
1601748342.000,-55.664,-35.156,-50.781,-23.926,0.000,0
1601748342.004,-64.453,-36.621,-46.875,-24.902,0.000,0
1601748342.008,-66.406,-29.785,-47.852,-21.973,0.000,0
1601748342.012,-57.617,-26.367,-42.969,-18.555,0.000,0
1601748342.016,-53.223,-30.273,-42.480,-13.672,0.000,0
1601748342.020,-62.988,-39.062,-45.898,-19.043,0.000,0
1601748342.024,-60.059,-42.480,-41.504,-31.738,0.000,0
1601748342.027,-49.805,-37.109,-42.969,-24.414,0.000,0
1601748342.031,-46.875,-33.203,-42.969,-7.324,0.000,0
1601748342.035,-45.898,-29.297,-38.086,-7.324,0.000,0
1601748342.039,-43.945,-31.250,-39.062,-17.090,0.000,0
1601748342.043,-49.316,-36.621,-40.527,-25.391,0.000,0
1601748342.047,-57.129,-38.574,-41.504,-32.227,0.000,0
1601748342.051,-53.223,-35.156,-41.504,-29.785,0.000,0
1601748342.055,-53.223,-33.203,-44.434,-26.367,0.000,0
1601748342.059,-52.734,-38.086,-42.969,-22.949,0.000,0
1601748342.063,-45.898,-39.551,-36.621,-20.020,0.000,0
1601748342.067,-48.828,-36.621,-37.598,-27.832,0.000,0
1601748342.070,-51.758,-33.203,-41.992,-24.414,0.000,0
1601748342.074,-42.969,-35.645,-38.086,-12.207,0.000,0
1601748342.078,-42.969,-30.273,-37.109,-20.996,0.000,0
1601748342.082,-42.969,-27.344,-41.992,-31.250,0.000,0
1601748342.086,-41.016,-31.250,-45.410,-33.691,0.000,0
1601748342.090,-46.387,-29.785,-47.852,-31.250,0.000,0
1601748342.094,-46.875,-32.715,-48.340,-23.926,0.000,0
1601748342.098,-46.387,-34.180,-46.875,-24.902,0.000,0
1601748342.102,-48.340,-32.715,-48.340,-24.902,0.000,0
1601748342.106,-46.875,-36.621,-47.852,-20.508,0.000,0
1601748342.110,-55.176,-37.109,-48.340,-27.832,0.000,0
1601748342.113,-53.223,-35.156,-49.316,-21.973,0.000,0
1601748342.117,-50.781,-41.016,-48.828,-5.371,0.000,0
1601748342.121,-50.781,-38.574,-44.922,-16.602,0.000,0
1601748342.125,-50.293,-31.738,-45.410,-26.367,0.000,0
1601748342.129,-54.199,-30.762,-47.363,-22.461,0.000,0
1601748342.133,-53.711,-28.809,-45.898,-20.508,0.000,0
1601748342.137,-43.457,-32.715,-41.992,-10.254,0.000,0
1601748342.141,-41.504,-32.715,-37.109,-14.648,0.000,0
1601748342.145,-41.504,-29.297,-40.527,-13.672,0.000,0
1601748342.149,-39.551,-28.320,-38.574,-3.906,0.000,0
1601748342.152,-41.504,-33.203,-36.621,-6.348,0.000,0
1601748342.156,-40.039,-39.062,-37.598,-11.230,0.000,0
1601748342.160,-44.922,-30.762,-43.945,-23.926,0.000,0
1601748342.164,-46.387,-27.832,-49.805,-26.855,0.000,0
1601748342.168,-44.922,-32.715,-49.316,-23.926,0.000,0
1601748342.172,-49.316,-31.738,-49.805,-22.949,0.000,0
1601748342.176,-51.758,-33.691,-50.293,-20.020,0.000,0
1601748342.180,-48.828,-36.133,-43.945,-7.324,0.000,0
1601748342.184,-50.781,-32.715,-40.527,-15.625,0.000,0
1601748342.188,-54.688,-28.320,-48.828,-34.180,0.000,0
1601748342.192,-50.293,-24.902,-47.363,-23.926,0.000,0
1601748342.195,-45.410,-26.855,-41.016,-11.719,0.000,0
1601748342.199,-41.016,-27.344,-42.969,-10.254,0.000,0
1601748342.203,-45.898,-27.344,-44.922,-23.926,0.000,0
1601748342.207,-51.270,-30.762,-42.969,-29.297,0.000,0
1601748342.211,-46.875,-34.180,-47.852,-24.414,0.000,0
1601748342.215,-42.969,-31.738,-48.828,-21.973,0.000,0
1601748342.219,-49.316,-35.645,-45.898,-22.949,0.000,0
1601748342.223,-51.270,-37.109,-45.898,-29.785,0.000,0
1601748342.227,-51.270,-34.180,-42.969,-30.273,0.000,0
1601748342.231,-63.477,-36.133,-44.922,-32.715,0.000,0
1601748342.235,-61.035,-32.227,-50.293,-31.250,0.000,0
1601748342.238,-52.734,-34.180,-50.781,-23.438,0.000,0
1601748342.242,-58.594,-40.039,-49.805,-30.762,0.000,0
1601748342.246,-57.129,-37.598,-47.852,-31.738,0.000,0
1601748342.250,-49.805,-34.180,-48.828,-22.949,0.000,0
1601748342.254,-56.641,-38.086,-54.199,-27.344,0.000,0
1601748342.258,-65.918,-42.480,-55.664,-19.531,0.000,0
1601748342.262,-66.895,-41.016,-54.688,-20.508,0.000,0
1601748342.266,-66.895,-39.551,-62.012,-35.645,0.000,0
1601748342.270,-60.059,-36.621,-64.453,-35.156,0.000,0
1601748342.274,-60.059,-31.250,-61.035,-27.832,0.000,0
1601748342.277,-62.500,-34.180,-58.105,-23.438,0.000,0
1601748342.281,-56.641,-37.109,-55.664,-27.344,0.000,0
1601748342.285,-53.223,-33.691,-54.199,-28.809,0.000,0
1601748342.289,-56.641,-35.645,-57.129,-22.461,0.000,0
1601748342.293,-60.059,-41.504,-61.035,-31.738,0.000,0
1601748342.297,-63.477,-50.293,-61.523,-33.691,0.000,0
1601748342.301,-59.570,-44.922,-57.129,-39.062,0.000,0
1601748342.305,-51.270,-39.551,-55.176,-50.293,0.000,0
1601748342.309,-52.246,-39.551,-57.129,-41.016,0.000,0
1601748342.313,-50.293,-34.180,-58.594,-30.762,0.000,0
1601748342.317,-48.828,-35.156,-54.688,-17.090,0.000,0
1601748342.320,-51.270,-38.574,-52.734,-21.484,0.000,0
1601748342.324,-52.246,-38.574,-55.176,-40.039,0.000,0
1601748342.328,-55.176,-41.992,-54.199,-45.410,0.000,0
1601748342.332,-51.270,-41.992,-52.734,-40.527,0.000,0
1601748342.336,-43.945,-32.715,-47.852,-33.203,0.000,0
1601748342.340,-42.969,-28.809,-45.898,-30.273,0.000,0
1601748342.344,-37.109,-26.367,-43.945,-33.203,0.000,0
1601748342.348,-37.109,-25.391,-43.945,-32.715,0.000,0
1601748342.352,-41.504,-29.785,-45.898,-21.484,0.000,0
1601748342.356,-39.062,-30.762,-46.387,-22.461,0.000,0
1601748342.360,-40.039,-28.809,-45.898,-27.344,0.000,0
1601748342.363,-40.039,-27.832,-43.457,-28.809,0.000,0
1601748342.367,-36.133,-25.391,-39.062,-32.227,0.000,0
1601748342.371,-33.691,-25.879,-42.480,-35.156,0.000,0
1601748342.375,-33.203,-27.344,-45.410,-26.367,0.000,0
1601748342.379,-35.156,-26.367,-46.387,-23.438,0.000,0
1601748342.383,-43.457,-27.344,-47.852,-31.738,0.000,0
1601748342.387,-43.945,-27.344,-45.898,-29.785,0.000,0
1601748342.391,-39.551,-27.344,-46.875,-21.973,0.000,0
1601748342.395,-41.992,-29.297,-44.922,-23.926,0.000,0
1601748342.399,-46.387,-28.809,-47.852,-30.273,0.000,0
1601748342.402,-52.246,-31.738,-53.711,-33.203,0.000,0
1601748342.406,-53.223,-34.668,-54.199,-34.668,0.000,0
1601748342.410,-42.480,-28.809,-49.316,-35.645,0.000,0
1601748342.414,-42.480,-26.367,-47.852,-27.344,0.000,0
1601748342.418,-41.992,-28.809,-44.434,-20.020,0.000,0
1601748342.422,-38.574,-28.320,-41.992,-29.297,0.000,0
1601748342.426,-43.457,-29.785,-43.945,-33.691,0.000,0
1601748342.430,-45.898,-31.250,-42.969,-23.926,0.000,0
1601748342.434,-48.828,-28.809,-45.410,-20.996,0.000,0
1601748342.438,-55.664,-31.250,-50.293,-28.809,0.000,0
1601748342.442,-54.199,-34.180,-48.828,-35.645,0.000,0
1601748342.445,-53.223,-34.180,-45.410,-36.621,0.000,0
1601748342.449,-52.734,-33.203,-46.387,-27.344,0.000,0
1601748342.453,-47.852,-32.227,-49.316,-21.973,0.000,0
1601748342.457,-39.062,-26.855,-45.410,-16.113,0.000,0
1601748342.461,-42.480,-28.320,-43.945,-20.996,0.000,0
1601748342.465,-46.875,-28.809,-47.852,-36.621,0.000,0
1601748342.469,-41.504,-27.344,-42.480,-27.344,0.000,0
1601748342.473,-41.016,-30.273,-41.504,-23.438,0.000,0
1601748342.477,-42.480,-30.762,-47.363,-27.344,0.000,0
1601748342.481,-40.039,-31.738,-50.293,-20.996,0.000,0
1601748342.485,-36.133,-28.809,-52.246,-23.438,0.000,0
1601748342.488,-42.969,-26.855,-49.805,-30.273,0.000,0
1601748342.492,-52.734,-32.227,-53.223,-31.250,0.000,0
1601748342.496,-53.223,-34.180,-53.223,-27.832,0.000,0
1601748342.500,-54.199,-33.203,-52.246,-32.227,0.000,0
1601748342.504,-54.199,-30.273,-51.758,-42.480,0.000,0
1601748342.508,-54.688,-32.715,-54.688,-34.668,0.000,0
1601748342.512,-49.316,-33.691,-57.617,-23.438,0.000,0
1601748342.516,-43.945,-30.762,-53.711,-26.367,0.000,0
1601748342.520,-48.340,-31.738,-50.781,-28.809,0.000,0
1601748342.524,-46.875,-32.227,-44.922,-32.227,0.000,0
1601748342.527,-41.504,-27.344,-38.086,-31.250,0.000,0
1601748342.531,-39.062,-22.461,-39.551,-16.113,0.000,0
1601748342.535,-40.039,-24.414,-40.527,-8.789,0.000,0
1601748342.539,-48.828,-29.785,-40.527,-22.461,0.000,0
1601748342.543,-52.246,-34.668,-43.457,-31.250,0.000,0
1601748342.547,-49.316,-33.203,-41.504,-27.832,0.000,0
1601748342.551,-48.828,-31.738,-43.457,-15.137,0.000,0
1601748342.555,-44.434,-30.273,-41.504,-19.043,0.000,0
1601748342.559,-44.434,-26.855,-37.598,-29.297,0.000,0
1601748342.563,-48.828,-26.367,-36.133,-25.879,0.000,0
1601748342.567,-51.758,-33.203,-36.621,-29.297,0.000,0
1601748342.570,-45.898,-38.574,-36.133,-24.902,0.000,0
1601748342.574,-38.086,-34.668,-41.504,-24.414,0.000,0
1601748342.578,-37.598,-34.180,-40.039,-25.391,0.000,0
1601748342.582,-44.922,-41.992,-37.109,-35.156,0.000,0
1601748342.586,-52.734,-35.156,-42.969,-40.527,0.000,0
1601748342.590,-57.129,-33.203,-41.504,-30.762,0.000,0
1601748342.594,-60.547,-37.598,-39.551,-31.250,0.000,0
1601748342.598,-55.664,-34.180,-42.969,-26.855,0.000,0
1601748342.602,-56.641,-35.156,-40.039,-29.785,0.000,0
1601748342.606,-58.105,-35.645,-40.527,-42.480,0.000,0
1601748342.610,-54.688,-34.180,-45.898,-34.668,0.000,0
1601748342.613,-59.082,-32.715,-44.922,-33.203,0.000,0
1601748342.617,-59.570,-39.062,-44.434,-35.645,0.000,0
1601748342.621,-51.270,-37.109,-46.387,-40.527,0.000,0
1601748342.625,-52.734,-31.250,-45.410,-42.480,0.000,0
1601748342.629,-53.223,-34.668,-45.410,-35.645,0.000,0
1601748342.633,-46.387,-31.738,-43.457,-30.762,0.000,0
1601748342.637,-42.969,-25.879,-45.410,-22.949,0.000,0
1601748342.641,-45.410,-28.320,-46.387,-31.250,0.000,0
1601748342.645,-50.293,-28.320,-41.992,-40.039,0.000,0
1601748342.649,-49.805,-27.832,-42.480,-30.273,0.000,0
1601748342.652,-52.246,-33.203,-43.457,-26.367,0.000,0
1601748342.656,-49.805,-35.645,-42.480,-24.902,0.000,0
1601748342.660,-44.434,-32.715,-44.922,-32.715,0.000,0
1601748342.664,-50.293,-34.180,-45.898,-39.062,0.000,0
1601748342.668,-51.758,-34.668,-44.434,-39.062,0.000,0
1601748342.672,-45.410,-28.320,-44.434,-31.738,0.000,0
1601748342.676,-48.340,-27.344,-47.363,-25.391,0.000,0
1601748342.680,-52.246,-36.133,-52.734,-26.855,0.000,0
1601748342.684,-53.711,-37.598,-51.270,-27.832,0.000,0
1601748342.688,-55.664,-32.715,-49.805,-28.809,0.000,0
1601748342.692,-49.805,-28.809,-49.805,-31.250,0.000,0
1601748342.695,-45.898,-23.438,-46.875,-27.344,0.000,0
1601748342.699,-42.969,-26.367,-42.969,-10.742,0.000,0
1601748342.703,-41.016,-30.273,-44.922,-15.625,0.000,0
1601748342.707,-47.363,-30.273,-47.363,-29.785,0.000,0
1601748342.711,-53.223,-33.203,-50.293,-30.273,0.000,0
1601748342.715,-49.316,-31.250,-51.270,-21.484,0.000,0
1601748342.719,-47.363,-33.203,-41.504,-23.438,0.000,0
1601748342.723,-50.781,-37.598,-41.504,-37.109,0.000,0
1601748342.727,-54.688,-34.668,-44.922,-39.551,0.000,0
1601748342.731,-48.828,-27.832,-41.992,-30.273,0.000,0
1601748342.735,-37.598,-25.391,-38.086,-26.367,0.000,0
1601748342.738,-43.457,-30.762,-41.016,-25.391,0.000,0
1601748342.742,-48.340,-31.738,-45.898,-25.879,0.000,0
1601748342.746,-43.457,-28.809,-49.805,-30.762,0.000,0
1601748342.750,-48.340,-34.180,-52.734,-33.203,0.000,0
1601748342.754,-48.828,-43.945,-48.340,-27.344,0.000,0
1601748342.758,-41.992,-43.945,-49.805,-20.508,0.000,0
1601748342.762,-48.340,-41.992,-52.734,-23.926,0.000,0
1601748342.766,-50.781,-41.992,-48.340,-26.367,0.000,0
1601748342.770,-44.434,-37.109,-47.363,-21.484,0.000,0
1601748342.774,-46.875,-36.621,-53.223,-27.344,0.000,0
1601748342.777,-44.434,-46.387,-53.223,-24.902,0.000,0
1601748342.781,-41.016,-43.457,-48.340,-18.555,0.000,0
1601748342.785,-46.875,-36.621,-51.270,-25.391,0.000,0
1601748342.789,-40.039,-35.156,-53.223,-27.344,0.000,0
1601748342.793,-34.180,-36.621,-49.805,-21.973,0.000,0
1601748342.797,-43.457,-38.086,-49.805,-20.996,0.000,0
1601748342.801,-43.945,-34.180,-50.781,-31.250,0.000,0
1601748342.805,-41.992,-31.250,-50.781,-32.715,0.000,0
1601748342.809,-44.922,-32.715,-51.758,-31.250,0.000,0
1601748342.813,-46.387,-36.133,-47.852,-25.879,0.000,0
1601748342.817,-48.340,-38.574,-41.016,-16.602,0.000,0
1601748342.820,-51.758,-38.574,-42.969,-20.508,0.000,0
1601748342.824,-56.641,-34.668,-47.852,-24.902,0.000,0
1601748342.828,-57.129,-34.668,-48.828,-23.438,0.000,0
1601748342.832,-53.223,-30.273,-44.922,-15.625,0.000,0
1601748342.836,-47.852,-26.367,-41.992,-9.766,0.000,0
1601748342.840,-51.758,-26.855,-44.922,-11.230,0.000,0
1601748342.844,-55.176,-25.879,-51.758,-25.391,0.000,0
1601748342.848,-50.293,-27.832,-51.270,-33.691,0.000,0
1601748342.852,-46.875,-27.344,-44.434,-19.043,0.000,0
1601748342.856,-41.504,-22.949,-43.457,-15.625,0.000,0
1601748342.860,-41.016,-24.902,-44.922,-15.137,0.000,0
1601748342.863,-44.922,-20.996,-43.457,-10.742,0.000,0
1601748342.867,-41.504,-20.996,-42.480,-11.719,0.000,0
1601748342.871,-41.992,-20.996,-44.434,-17.578,0.000,0
1601748342.875,-49.316,-19.531,-46.387,-13.672,0.000,0
1601748342.879,-50.781,-22.461,-45.898,-12.695,0.000,0
1601748342.883,-45.898,-26.855,-44.434,-21.484,0.000,0
1601748342.887,-42.480,-28.809,-40.039,-21.973,0.000,0
1601748342.891,-42.480,-25.879,-40.527,-16.602,0.000,0
1601748342.895,-40.527,-27.344,-46.875,-15.137,0.000,0
1601748342.899,-42.969,-31.738,-45.410,-17.090,0.000,0
1601748342.902,-48.828,-31.738,-40.039,-21.973,0.000,0
1601748342.906,-49.805,-28.809,-41.016,-16.602,0.000,0
1601748342.910,-52.246,-32.227,-42.480,-15.625,0.000,0
1601748342.914,-47.852,-30.762,-41.992,-15.625,0.000,0
1601748342.918,-36.621,-24.414,-35.156,-3.418,0.000,0
1601748342.922,-41.016,-22.949,-32.227,-16.113,0.000,0
1601748342.926,-44.922,-21.484,-35.645,-36.133,0.000,0
1601748342.930,-41.504,-23.926,-35.645,-37.109,0.000,0
1601748342.934,-42.480,-26.855,-37.109,-26.855,0.000,0
1601748342.938,-39.551,-28.809,-37.598,-24.902,0.000,0
1601748342.942,-43.457,-33.691,-34.180,-30.273,0.000,0
1601748342.945,-44.434,-33.691,-35.645,-35.156,0.000,0
1601748342.949,-41.016,-27.832,-39.062,-34.180,0.000,0
1601748342.953,-43.457,-26.855,-42.480,-27.344,0.000,0
1601748342.957,-46.387,-34.180,-43.457,-22.949,0.000,0
1601748342.961,-44.922,-29.785,-40.527,-25.879,0.000,0
1601748342.965,-40.039,-22.949,-40.039,-25.879,0.000,0
1601748342.969,-39.062,-28.809,-42.480,-23.926,0.000,0
1601748342.973,-35.645,-31.738,-43.945,-24.902,0.000,0
1601748342.977,-32.227,-25.391,-40.527,-14.648,0.000,0
1601748342.981,-37.598,-22.461,-39.062,-18.555,0.000,0
1601748342.985,-44.922,-24.414,-39.062,-41.504,0.000,0
1601748342.988,-48.828,-20.996,-39.551,-45.898,0.000,0
1601748342.992,-49.316,-22.461,-45.410,-38.574,0.000,0
1601748342.996,-46.387,-20.996,-41.992,-31.738,0.000,0
1601748343.000,-50.781,-23.926,-37.109,-35.645,0.000,0
1601748343.004,-50.293,-29.785,-39.551,-38.086,0.000,0
1601748343.008,-46.387,-34.668,-42.480,-19.531,0.000,0
1601748343.012,-47.363,-38.086,-46.387,-11.230,0.000,0
1601748343.016,-44.922,-33.203,-43.457,-22.461,0.000,0
1601748343.020,-44.434,-34.668,-41.504,-20.996,0.000,0
1601748343.024,-48.828,-36.133,-45.410,-23.438,0.000,0
1601748343.027,-49.316,-32.715,-45.898,-34.668,0.000,0
1601748343.031,-48.340,-32.227,-46.387,-33.691,0.000,0
1601748343.035,-44.922,-32.715,-46.875,-32.227,0.000,0
1601748343.039,-45.898,-34.668,-51.758,-39.062,0.000,0
1601748343.043,-48.828,-34.180,-46.875,-37.109,0.000,0
1601748343.047,-54.688,-30.762,-40.039,-39.551,0.000,0
1601748343.051,-57.617,-26.855,-42.969,-37.109,0.000,0
1601748343.055,-56.641,-23.926,-42.480,-30.273,0.000,0
1601748343.059,-57.129,-27.832,-43.945,-29.785,0.000,0
1601748343.063,-60.059,-28.809,-47.852,-29.297,0.000,0
1601748343.067,-59.082,-24.414,-43.945,-35.645,0.000,0
1601748343.070,-52.246,-32.715,-38.574,-24.902,0.000,0
1601748343.074,-49.805,-36.621,-37.109,-21.484,0.000,0
1601748343.078,-52.734,-28.809,-41.992,-35.156,0.000,0
1601748343.082,-55.664,-29.785,-49.316,-42.969,0.000,0
1601748343.086,-57.617,-30.762,-49.805,-46.387,0.000,0
1601748343.090,-58.105,-28.320,-48.340,-46.387,0.000,0
1601748343.094,-57.617,-27.832,-46.387,-35.156,0.000,0
1601748343.098,-58.105,-28.809,-41.016,-25.879,0.000,0
1601748343.102,-58.594,-32.227,-39.062,-26.367,0.000,0
1601748343.106,-60.059,-34.180,-39.551,-35.156,0.000,0
1601748343.110,-62.012,-30.762,-41.016,-34.668,0.000,0
1601748343.113,-60.547,-31.250,-42.969,-35.156,0.000,2
1601748343.117,-51.270,-33.203,-45.410,-37.598,0.000,0
1601748343.121,-51.758,-31.738,-44.922,-41.016,0.000,0
1601748343.125,-51.270,-26.855,-42.969,-46.875,0.000,0
1601748343.129,-44.434,-23.438,-41.504,-39.062,0.000,0
1601748343.133,-48.828,-26.855,-43.945,-34.668,0.000,0
1601748343.137,-57.617,-32.227,-46.875,-27.832,0.000,0
1601748343.141,-58.594,-28.809,-46.387,-32.715,0.000,0
1601748343.145,-55.664,-27.832,-49.805,-38.086,0.000,0
1601748343.149,-56.152,-27.832,-50.293,-26.855,0.000,0
1601748343.152,-57.617,-28.320,-49.316,-27.344,0.000,0
1601748343.156,-56.641,-26.367,-51.270,-33.691,0.000,0
1601748343.160,-58.594,-20.508,-47.852,-32.715,0.000,0
1601748343.164,-60.059,-24.414,-46.875,-47.852,0.000,0
1601748343.168,-54.688,-22.461,-42.969,-48.340,0.000,0
1601748343.172,-46.387,-21.484,-32.227,-23.926,0.000,0
1601748343.176,-42.969,-25.391,-30.273,-30.762,0.000,0
1601748343.180,-43.945,-22.949,-38.086,-41.992,0.000,0
1601748343.184,-46.387,-24.902,-41.992,-39.551,0.000,0
1601748343.188,-53.711,-24.414,-41.504,-40.039,0.000,0
1601748343.192,-51.270,-22.949,-43.945,-31.738,0.000,0
1601748343.195,-46.387,-26.855,-49.316,-26.855,0.000,0
1601748343.199,-51.758,-26.367,-52.734,-27.344,0.000,0
1601748343.203,-51.270,-27.832,-51.270,-38.086,0.000,0
1601748343.207,-46.875,-28.320,-51.270,-42.480,0.000,0
1601748343.211,-43.457,-24.902,-56.152,-33.203,0.000,0
1601748343.215,-38.086,-21.484,-50.781,-25.879,0.000,0
1601748343.219,-42.969,-21.973,-42.480,-24.902,0.000,0
1601748343.223,-45.898,-25.879,-50.781,-35.645,0.000,0
1601748343.227,-43.945,-29.297,-55.664,-41.992,0.000,0
1601748343.231,-45.410,-31.250,-50.781,-33.203,0.000,0
1601748343.235,-44.922,-33.691,-47.852,-26.855,0.000,0
1601748343.238,-46.387,-30.273,-45.898,-31.250,0.000,0
1601748343.242,-50.293,-30.273,-48.828,-34.180,0.000,0
1601748343.246,-55.176,-29.785,-51.758,-32.715,0.000,0
1601748343.250,-59.082,-27.344,-50.781,-34.180,0.000,0
1601748343.254,-54.199,-28.809,-47.852,-39.551,0.000,0
1601748343.258,-47.852,-27.832,-48.340,-36.621,0.000,0
1601748343.262,-49.316,-29.785,-48.828,-40.527,0.000,0
1601748343.266,-50.781,-32.715,-45.410,-43.457,0.000,0
1601748343.270,-48.340,-32.227,-46.875,-29.297,0.000,0
1601748343.274,-38.086,-30.762,-45.898,-35.645,0.000,0
1601748343.277,-34.668,-30.273,-41.992,-46.875,0.000,0
1601748343.281,-35.645,-30.762,-42.969,-44.434,0.000,0
1601748343.285,-36.133,-32.227,-43.945,-47.363,0.000,0
1601748343.289,-38.086,-31.738,-44.922,-41.504,0.000,0
1601748343.293,-34.180,-31.250,-45.410,-32.227,0.000,0
1601748343.297,-35.645,-30.273,-45.410,-32.227,0.000,0
1601748343.301,-37.109,-27.832,-45.898,-38.086,0.000,0
1601748343.305,-34.180,-30.762,-45.410,-36.133,0.000,0
1601748343.309,-34.180,-31.250,-46.875,-22.461,0.000,0
1601748343.313,-35.156,-24.902,-49.805,-24.902,0.000,0
1601748343.317,-32.227,-23.926,-49.805,-25.391,0.000,0
1601748343.320,-40.039,-26.855,-51.270,-24.902,0.000,0
1601748343.324,-45.410,-28.320,-49.805,-35.156,0.000,0
1601748343.328,-37.598,-26.855,-46.875,-36.133,0.000,0
1601748343.332,-33.203,-25.391,-46.387,-31.738,0.000,0
1601748343.336,-36.133,-26.367,-50.293,-19.531,0.000,0
1601748343.340,-42.480,-24.414,-44.922,-15.625,0.000,0
1601748343.344,-46.387,-27.832,-42.480,-19.531,0.000,0
1601748343.348,-46.387,-31.250,-47.363,-19.043,0.000,0
1601748343.352,-48.828,-29.297,-52.734,-30.762,0.000,0
1601748343.356,-44.922,-31.250,-51.270,-29.297,0.000,0
1601748343.360,-46.387,-28.320,-50.293,-19.043,0.000,0
1601748343.363,-52.734,-31.250,-54.199,-38.086,0.000,0
1601748343.367,-52.734,-31.738,-54.199,-49.805,0.000,0
1601748343.371,-57.129,-32.227,-58.105,-42.969,0.000,0
1601748343.375,-54.688,-36.133,-58.594,-36.621,0.000,0
1601748343.379,-53.711,-37.109,-54.688,-37.598,0.000,0
1601748343.383,-50.781,-33.203,-50.781,-42.969,0.000,0
1601748343.387,-45.410,-29.297,-51.758,-38.574,0.000,0
1601748343.391,-43.945,-27.832,-51.758,-33.691,0.000,0
1601748343.395,-47.852,-26.855,-48.340,-25.391,0.000,0
1601748343.399,-43.945,-31.250,-46.387,-22.949,0.000,0
1601748343.402,-44.434,-33.203,-44.922,-24.902,0.000,0
1601748343.406,-49.805,-32.715,-44.434,-32.227,0.000,0
1601748343.410,-44.434,-31.250,-41.016,-37.109,0.000,0
1601748343.414,-39.551,-27.832,-39.062,-28.320,0.000,0
1601748343.418,-37.598,-33.203,-37.598,-26.855,0.000,0
1601748343.422,-41.016,-33.203,-40.527,-39.062,0.000,0
1601748343.426,-42.969,-25.879,-44.922,-39.551,0.000,0
1601748343.430,-40.527,-24.414,-43.945,-38.086,0.000,0
1601748343.434,-42.480,-25.391,-43.457,-37.109,0.000,0
1601748343.438,-43.457,-23.926,-46.875,-25.391,0.000,0
1601748343.442,-38.574,-23.438,-47.852,-22.461,0.000,0
1601748343.445,-34.668,-21.973,-41.504,-31.250,0.000,0
1601748343.449,-38.574,-20.020,-38.574,-37.109,0.000,0
1601748343.453,-42.480,-25.879,-41.992,-31.250,0.000,0
1601748343.457,-41.992,-28.320,-40.527,-30.762,0.000,0
1601748343.461,-49.805,-29.785,-43.457,-39.551,0.000,0
1601748343.465,-53.711,-36.133,-48.828,-43.945,0.000,0
1601748343.469,-41.992,-31.738,-48.340,-43.945,0.000,0
1601748343.473,-41.016,-24.902,-46.387,-42.969,0.000,0
1601748343.477,-47.363,-23.438,-46.387,-44.922,0.000,0
1601748343.481,-44.922,-22.461,-46.875,-44.922,0.000,0
1601748343.485,-43.945,-25.879,-45.410,-46.387,0.000,0
1601748343.488,-45.410,-27.832,-44.922,-45.410,0.000,0
1601748343.492,-42.480,-27.344,-46.875,-41.504,0.000,0
1601748343.496,-42.480,-27.832,-45.410,-31.250,0.000,0
1601748343.500,-45.410,-26.367,-46.875,-26.367,0.000,0
1601748343.504,-49.805,-27.832,-50.781,-43.457,0.000,0
1601748343.508,-51.270,-29.297,-50.781,-48.828,0.000,0
1601748343.512,-41.016,-26.367,-47.363,-38.086,0.000,0
1601748343.516,-42.480,-27.832,-47.852,-30.762,0.000,0
1601748343.520,-43.945,-26.367,-44.922,-34.668,0.000,0
1601748343.524,-42.480,-24.414,-46.387,-36.133,0.000,0
1601748343.527,-49.316,-29.785,-49.316,-40.527,0.000,0
1601748343.531,-47.363,-30.762,-44.922,-41.016,0.000,0
1601748343.535,-45.898,-29.297,-43.457,-23.926,0.000,0
1601748343.539,-45.410,-29.297,-41.992,-26.367,0.000,0
1601748343.543,-42.969,-28.809,-41.016,-41.504,0.000,0
1601748343.547,-41.992,-33.691,-42.480,-43.945,0.000,0
1601748343.551,-41.992,-38.086,-40.527,-42.480,0.000,0
1601748343.555,-45.898,-41.016,-40.527,-34.180,0.000,0
1601748343.559,-49.805,-47.363,-50.781,-32.227,0.000,0
1601748343.563,-51.270,-40.527,-52.734,-38.086,0.000,0
1601748343.567,-48.828,-30.273,-44.922,-45.410,0.000,0
1601748343.570,-47.363,-31.738,-41.992,-44.434,0.000,0
1601748343.574,-48.340,-31.738,-43.457,-36.621,0.000,0
1601748343.578,-44.434,-29.785,-41.016,-33.203,0.000,0
1601748343.582,-43.945,-31.738,-41.504,-43.457,0.000,0
1601748343.586,-47.852,-32.227,-42.480,-46.875,0.000,0
1601748343.590,-49.316,-28.320,-42.480,-36.133,0.000,0
1601748343.594,-46.387,-29.297,-44.434,-34.180,0.000,0
1601748343.598,-44.922,-33.691,-51.758,-40.527,0.000,0
1601748343.602,-45.898,-35.645,-49.805,-41.504,0.000,0
1601748343.606,-52.734,-35.645,-42.969,-42.480,0.000,0
1601748343.610,-58.594,-34.180,-44.922,-40.527,0.000,0
1601748343.613,-57.129,-34.668,-44.434,-36.133,0.000,0
1601748343.617,-60.059,-40.039,-41.016,-43.945,0.000,0
1601748343.621,-65.918,-41.992,-42.969,-53.223,0.000,0
1601748343.625,-63.477,-35.645,-41.504,-49.805,0.000,0
1601748343.629,-59.082,-32.715,-39.062,-43.457,0.000,0
1601748343.633,-56.152,-35.645,-40.527,-40.527,0.000,0
1601748343.637,-60.547,-41.016,-43.457,-33.203,0.000,0
1601748343.641,-61.523,-42.480,-42.480,-40.039,0.000,0
1601748343.645,-56.641,-34.180,-43.945,-47.852,0.000,0
1601748343.649,-56.152,-26.855,-46.875,-35.156,0.000,0
1601748343.652,-48.828,-25.391,-41.992,-24.902,0.000,0
1601748343.656,-49.316,-29.297,-43.457,-27.832,0.000,0
1601748343.660,-53.711,-35.156,-49.316,-40.527,0.000,0
1601748343.664,-50.781,-33.691,-45.898,-50.293,0.000,0
1601748343.668,-54.688,-34.180,-42.969,-46.387,0.000,0
1601748343.672,-55.664,-35.156,-45.410,-45.898,0.000,0
1601748343.676,-55.176,-33.691,-48.828,-41.016,0.000,0
1601748343.680,-56.641,-31.738,-53.711,-37.598,0.000,0
1601748343.684,-57.129,-29.297,-53.711,-49.805,0.000,0
1601748343.688,-56.641,-32.227,-46.387,-51.270,0.000,0
1601748343.692,-60.547,-35.156,-44.922,-39.551,0.000,0
1601748343.695,-62.012,-29.297,-44.922,-34.668,0.000,0
1601748343.699,-60.547,-30.273,-42.969,-33.691,0.000,0
1601748343.703,-62.012,-33.203,-41.016,-33.203,0.000,0
1601748343.707,-62.012,-31.250,-36.621,-41.016,0.000,0
1601748343.711,-59.082,-30.762,-39.551,-41.504,0.000,0
1601748343.715,-56.641,-35.156,-42.480,-37.109,0.000,0
1601748343.719,-56.641,-30.273,-38.086,-36.133,0.000,0
1601748343.723,-58.105,-24.902,-40.039,-45.410,0.000,0
1601748343.727,-57.617,-25.879,-41.992,-45.898,0.000,0
1601748343.731,-58.594,-25.879,-41.504,-39.062,0.000,0
1601748343.735,-56.641,-24.902,-44.922,-34.668,0.000,0
1601748343.738,-51.270,-24.902,-49.805,-29.785,0.000,0
1601748343.742,-56.641,-26.855,-53.711,-34.668,0.000,0
1601748343.746,-62.988,-32.227,-57.129,-40.527,0.000,0
1601748343.750,-59.082,-30.762,-54.199,-37.598,0.000,0
1601748343.754,-56.152,-28.320,-47.363,-36.133,0.000,0
1601748343.758,-58.594,-25.879,-46.875,-44.434,0.000,0
1601748343.762,-58.105,-23.926,-47.363,-49.316,0.000,0
1601748343.766,-49.316,-29.297,-47.363,-49.316,0.000,0
1601748343.770,-41.992,-32.715,-52.734,-35.645,0.000,0
1601748343.774,-45.410,-29.785,-54.199,-25.391,0.000,0
1601748343.777,-49.805,-23.926,-49.316,-29.297,0.000,0
1601748343.781,-57.129,-27.832,-46.387,-37.109,0.000,0
1601748343.785,-57.617,-29.785,-47.363,-48.828,0.000,0
1601748343.789,-42.480,-26.367,-45.898,-37.109,0.000,0
1601748343.793,-44.922,-27.832,-45.410,-39.062,0.000,0
1601748343.797,-49.805,-29.297,-49.316,-47.363,0.000,0
1601748343.801,-45.410,-35.645,-52.734,-43.945,0.000,0
1601748343.805,-42.969,-34.668,-49.805,-38.086,0.000,0
1601748343.809,-46.387,-29.297,-47.852,-34.668,0.000,0
1601748343.813,-44.922,-30.762,-50.293,-31.250,0.000,0
1601748343.817,-42.480,-30.273,-52.734,-29.297,0.000,0
1601748343.820,-46.387,-29.297,-48.828,-35.156,0.000,0
1601748343.824,-45.898,-29.785,-49.805,-34.180,0.000,0
1601748343.828,-40.039,-32.715,-50.781,-35.645,0.000,0
1601748343.832,-41.992,-33.203,-43.457,-25.879,0.000,0
1601748343.836,-42.969,-31.250,-41.992,-16.602,0.000,0
1601748343.840,-41.016,-31.738,-42.969,-28.320,0.000,0
1601748343.844,-40.039,-28.809,-41.992,-37.598,0.000,0
1601748343.848,-40.527,-28.809,-43.945,-41.504,0.000,0
1601748343.852,-41.504,-31.738,-43.457,-35.156,0.000,0
1601748343.856,-38.574,-32.715,-43.945,-25.391,0.000,0
1601748343.860,-38.574,-30.273,-46.387,-35.645,0.000,0
1601748343.863,-45.410,-31.250,-46.387,-54.199,0.000,0
1601748343.867,-48.340,-33.203,-49.316,-53.223,0.000,0
1601748343.871,-46.875,-33.691,-50.293,-47.363,0.000,0
1601748343.875,-50.293,-33.203,-46.387,-44.434,0.000,0
1601748343.879,-47.363,-34.180,-44.922,-42.969,0.000,0
1601748343.883,-45.410,-32.227,-44.434,-39.551,0.000,0
1601748343.887,-48.828,-27.344,-46.387,-41.992,0.000,0
1601748343.891,-46.387,-27.344,-47.852,-51.270,0.000,0
1601748343.895,-45.898,-28.320,-46.875,-44.922,0.000,0
1601748343.899,-49.316,-23.438,-49.316,-35.645,0.000,0
1601748343.902,-54.199,-22.461,-50.781,-41.016,0.000,0
1601748343.906,-55.176,-22.949,-47.363,-48.828,0.000,0
1601748343.910,-50.293,-22.949,-42.480,-42.969,0.000,0
1601748343.914,-45.410,-22.461,-43.457,-31.250,0.000,0
1601748343.918,-45.898,-20.020,-47.363,-24.414,0.000,0
1601748343.922,-47.363,-24.902,-42.969,-28.320,0.000,0
1601748343.926,-45.410,-29.785,-42.969,-36.133,0.000,0
1601748343.930,-48.828,-26.855,-46.875,-41.016,0.000,0
1601748343.934,-48.828,-30.273,-44.922,-35.645,0.000,0
1601748343.938,-45.410,-27.344,-46.387,-32.715,0.000,0
1601748343.942,-50.293,-26.367,-46.875,-44.922,0.000,0
1601748343.945,-57.129,-31.738,-48.828,-54.688,0.000,0
1601748343.949,-63.477,-25.391,-53.223,-49.805,0.000,0
1601748343.953,-67.383,-26.855,-52.734,-42.969,0.000,0
1601748343.957,-65.918,-33.203,-47.363,-45.898,0.000,0
1601748343.961,-63.477,-36.621,-45.898,-50.293,0.000,0
1601748343.965,-61.035,-37.598,-48.340,-55.664,0.000,0
1601748343.969,-59.082,-35.156,-44.922,-53.223,0.000,0
1601748343.973,-62.012,-35.156,-43.457,-46.387,0.000,0
1601748343.977,-64.453,-33.691,-42.969,-31.738,0.000,0
1601748343.981,-60.547,-32.715,-45.410,-40.527,0.000,0
1601748343.985,-56.152,-32.227,-47.852,-64.453,0.000,0
1601748343.988,-58.105,-38.086,-40.039,-56.641,0.000,0
1601748343.992,-61.523,-36.133,-41.992,-41.016,0.000,0
1601748343.996,-71.289,-38.574,-44.434,-37.598,0.000,0
1601748344.000,-76.172,-44.434,-41.992,-41.016,0.000,0
1601748344.004,-71.777,-38.086,-44.434,-43.457,0.000,0
1601748344.008,-65.918,-33.203,-41.992,-53.223,0.000,0
1601748344.012,-58.594,-34.668,-41.016,-47.363,0.000,0
1601748344.016,-52.734,-33.691,-44.434,-27.344,0.000,0
1601748344.020,-51.270,-33.203,-41.992,-26.367,0.000,0
1601748344.024,-55.664,-35.645,-40.039,-30.762,0.000,0
1601748344.027,-56.152,-27.832,-39.551,-35.645,0.000,0
1601748344.031,-57.617,-28.320,-42.969,-41.992,0.000,0
1601748344.035,-62.012,-31.250,-44.434,-39.551,0.000,0
1601748344.039,-62.988,-30.762,-44.922,-46.387,0.000,0
1601748344.043,-64.453,-33.691,-41.992,-51.758,0.000,0
1601748344.047,-61.035,-29.785,-38.086,-38.574,0.000,0
1601748344.051,-52.246,-32.227,-39.062,-33.203,0.000,0
1601748344.055,-50.293,-35.156,-42.969,-41.992,0.000,0
1601748344.059,-53.711,-32.715,-44.922,-36.133,0.000,0
1601748344.063,-53.711,-37.598,-41.504,-40.527,0.000,0
1601748344.067,-57.617,-34.180,-43.457,-58.105,0.000,0
1601748344.070,-51.758,-31.250,-46.875,-47.852,0.000,0
1601748344.074,-46.387,-31.250,-44.434,-38.574,0.000,0
1601748344.078,-56.641,-30.273,-43.457,-43.457,0.000,0
1601748344.082,-53.711,-31.738,-44.922,-51.270,0.000,0
1601748344.086,-53.223,-25.391,-43.457,-52.734,0.000,0
1601748344.090,-61.035,-22.461,-46.387,-49.805,0.000,0
1601748344.094,-53.711,-24.902,-43.945,-44.922,0.000,0
1601748344.098,-46.387,-25.879,-42.969,-43.457,0.000,0
1601748344.102,-50.781,-30.273,-48.340,-49.805,0.000,0
1601748344.106,-49.805,-31.738,-50.293,-54.688,0.000,0
1601748344.110,-50.781,-29.785,-46.387,-47.363,0.000,0
1601748344.113,-48.828,-27.344,-41.016,-35.156,0.000,0
1601748344.117,-41.504,-26.367,-42.969,-44.434,0.000,0
1601748344.121,-46.387,-21.973,-44.434,-53.711,0.000,0
1601748344.125,-48.828,-20.508,-40.039,-44.434,0.000,0
1601748344.129,-55.176,-27.344,-41.992,-48.828,0.000,0
1601748344.133,-57.617,-28.809,-47.363,-50.293,0.000,0
1601748344.137,-52.734,-28.320,-50.293,-43.945,0.000,0
1601748344.141,-55.664,-31.738,-52.734,-51.758,0.000,0
1601748344.145,-54.688,-36.621,-54.199,-59.082,0.000,0
1601748344.149,-56.152,-38.574,-52.246,-58.105,0.000,0
1601748344.152,-56.641,-36.133,-47.363,-56.152,0.000,0
1601748344.156,-42.969,-36.133,-45.410,-54.199,0.000,0
1601748344.160,-41.504,-31.738,-48.828,-53.711,0.000,0
1601748344.164,-57.129,-28.809,-49.805,-57.617,0.000,0
1601748344.168,-64.453,-31.738,-45.898,-64.941,0.000,0
1601748344.172,-61.523,-33.203,-44.434,-53.223,0.000,0
1601748344.176,-58.105,-33.691,-50.781,-38.574,0.000,0
1601748344.180,-61.035,-31.738,-52.246,-43.945,0.000,0
1601748344.184,-65.430,-31.738,-51.758,-46.875,0.000,0
1601748344.188,-63.965,-31.738,-51.758,-57.129,0.000,0
1601748344.192,-54.688,-33.691,-52.734,-55.664,0.000,0
1601748344.195,-46.875,-34.180,-51.270,-34.180,0.000,0
1601748344.199,-45.898,-28.320,-50.293,-33.691,0.000,1
1601748344.203,-46.875,-29.785,-48.340,-35.645,0.000,0
1601748344.207,-45.898,-30.762,-45.410,-37.598,0.000,0
1601748344.211,-45.410,-28.809,-46.387,-38.574,0.000,0
1601748344.215,-43.945,-24.902,-42.969,-33.203,0.000,0
1601748344.219,-42.969,-30.273,-41.016,-39.062,0.000,0
1601748344.223,-43.457,-33.691,-42.969,-41.016,0.000,0
1601748344.227,-48.828,-27.832,-47.363,-39.551,0.000,0
1601748344.231,-52.734,-25.391,-46.875,-41.992,0.000,0
1601748344.235,-50.293,-24.902,-44.922,-45.410,0.000,0
1601748344.238,-54.199,-23.926,-48.828,-43.945,0.000,0
1601748344.242,-55.664,-24.902,-52.246,-51.270,0.000,0
1601748344.246,-53.223,-27.832,-49.316,-43.945,0.000,0
1601748344.250,-56.152,-26.367,-47.363,-30.273,0.000,0
1601748344.254,-52.734,-24.902,-44.922,-25.879,0.000,0
1601748344.258,-48.828,-24.902,-43.457,-23.438,0.000,0
1601748344.262,-57.617,-27.344,-45.898,-39.551,0.000,0
1601748344.266,-58.594,-29.297,-47.363,-50.781,0.000,0
1601748344.270,-54.199,-26.855,-44.922,-40.039,0.000,0
1601748344.274,-51.758,-22.949,-44.434,-36.621,0.000,0
1601748344.277,-53.711,-25.879,-45.410,-41.504,0.000,0
1601748344.281,-51.758,-29.785,-42.969,-41.504,0.000,0
1601748344.285,-49.316,-25.391,-45.898,-45.410,0.000,0
1601748344.289,-52.246,-30.273,-44.922,-33.691,0.000,0
1601748344.293,-52.246,-28.809,-40.039,-23.926,0.000,0
1601748344.297,-51.758,-23.926,-41.504,-31.738,0.000,0
1601748344.301,-51.758,-24.902,-41.504,-41.992,0.000,0
1601748344.305,-53.711,-23.438,-42.480,-41.016,0.000,0
1601748344.309,-58.105,-26.367,-45.410,-37.109,0.000,0
1601748344.313,-58.105,-26.855,-47.363,-34.668,0.000,0
1601748344.317,-56.641,-24.902,-47.363,-30.762,0.000,0
1601748344.320,-56.641,-23.926,-49.316,-37.109,0.000,0
1601748344.324,-57.617,-26.367,-49.805,-45.410,0.000,0
1601748344.328,-60.547,-28.809,-45.898,-52.734,0.000,0
1601748344.332,-68.359,-26.367,-45.898,-58.105,0.000,0
1601748344.336,-66.895,-28.320,-47.852,-43.457,0.000,0
1601748344.340,-65.430,-31.738,-54.199,-42.480,0.000,0
1601748344.344,-70.312,-34.180,-53.223,-47.852,0.000,0
1601748344.348,-69.824,-33.691,-48.340,-38.574,0.000,0
1601748344.352,-63.965,-30.273,-46.387,-41.504,0.000,0
1601748344.356,-54.199,-22.949,-47.852,-35.156,0.000,0
1601748344.360,-56.152,-25.391,-49.316,-37.598,0.000,0
1601748344.363,-66.406,-31.738,-46.875,-50.781,0.000,0
1601748344.367,-66.895,-31.250,-46.875,-56.152,0.000,0
1601748344.371,-65.430,-28.809,-46.387,-45.898,0.000,0
1601748344.375,-59.082,-27.832,-37.109,-29.297,0.000,0
1601748344.379,-59.082,-26.367,-36.133,-31.250,0.000,0
1601748344.383,-61.035,-24.414,-44.434,-45.898,0.000,0
1601748344.387,-61.035,-26.855,-43.457,-46.387,0.000,0
1601748344.391,-62.500,-31.250,-39.062,-37.598,0.000,0
1601748344.395,-66.406,-31.738,-40.527,-36.621,0.000,0
1601748344.399,-72.266,-31.738,-44.434,-36.133,0.000,0
1601748344.402,-72.754,-30.762,-46.875,-41.992,0.000,0
1601748344.406,-70.801,-31.250,-47.852,-49.805,0.000,0
1601748344.410,-66.406,-30.762,-51.758,-46.875,0.000,0
1601748344.414,-62.988,-28.809,-55.664,-46.875,0.000,0
1601748344.418,-64.941,-27.832,-51.270,-47.363,0.000,0
1601748344.422,-70.801,-30.762,-48.828,-48.340,0.000,0
1601748344.426,-76.660,-32.715,-50.781,-48.340,0.000,0
1601748344.430,-78.613,-33.203,-50.781,-48.828,0.000,0
1601748344.434,-77.148,-35.156,-53.223,-41.992,0.000,0
1601748344.438,-72.266,-33.203,-50.293,-36.621,0.000,0
1601748344.442,-68.848,-33.203,-48.340,-44.922,0.000,0
1601748344.445,-69.824,-38.086,-52.246,-45.410,0.000,0
1601748344.449,-70.801,-36.621,-52.734,-38.086,0.000,0
1601748344.453,-69.336,-31.250,-46.875,-32.227,0.000,0
1601748344.457,-73.242,-31.738,-47.852,-30.762,0.000,0
1601748344.461,-73.242,-28.809,-51.270,-38.574,0.000,0
1601748344.465,-71.289,-28.809,-48.340,-54.199,0.000,0
1601748344.469,-66.406,-27.832,-52.734,-57.129,0.000,0
1601748344.473,-54.199,-27.344,-54.199,-48.828,0.000,0
1601748344.477,-56.641,-30.762,-48.340,-34.668,0.000,0
1601748344.481,-56.641,-30.762,-46.387,-30.273,0.000,0
1601748344.485,-56.641,-31.250,-43.457,-50.293,0.000,0
1601748344.488,-63.965,-33.691,-45.898,-62.500,0.000,0
1601748344.492,-60.547,-33.203,-49.805,-50.781,0.000,0
1601748344.496,-56.641,-34.180,-51.270,-37.109,0.000,0
1601748344.500,-56.152,-36.133,-52.246,-45.410,0.000,0
1601748344.504,-56.152,-29.297,-51.270,-48.828,0.000,0
1601748344.508,-60.547,-28.320,-49.316,-47.363,0.000,0
1601748344.512,-68.359,-29.785,-49.316,-50.293,0.000,0
1601748344.516,-64.453,-29.785,-47.363,-40.527,0.000,0
1601748344.520,-60.547,-29.785,-46.875,-37.598,0.000,0
1601748344.524,-69.336,-23.438,-50.293,-48.340,0.000,0
1601748344.527,-71.777,-24.414,-45.898,-46.387,0.000,0
1601748344.531,-61.523,-27.344,-41.016,-36.133,0.000,0
1601748344.535,-57.617,-27.832,-42.480,-40.039,0.000,0
1601748344.539,-64.941,-32.715,-46.875,-49.316,0.000,0
1601748344.543,-65.430,-29.297,-42.480,-54.199,0.000,0
1601748344.547,-63.477,-25.879,-37.109,-48.828,0.000,0
1601748344.551,-66.406,-30.273,-41.992,-35.156,0.000,0
1601748344.555,-65.918,-31.250,-42.969,-34.668,0.000,0
1601748344.559,-73.242,-34.180,-46.875,-46.387,0.000,0
1601748344.563,-72.266,-32.715,-52.246,-45.410,0.000,0
1601748344.567,-66.895,-30.273,-52.246,-50.293,0.000,0
1601748344.570,-66.406,-28.809,-52.734,-57.617,0.000,0
1601748344.574,-57.617,-33.203,-51.758,-43.945,0.000,0
1601748344.578,-53.711,-29.785,-47.852,-38.086,0.000,0
1601748344.582,-52.734,-23.926,-47.852,-38.086,0.000,0
1601748344.586,-50.781,-28.809,-46.387,-42.480,0.000,0
1601748344.590,-48.828,-26.855,-45.410,-46.875,0.000,0
1601748344.594,-49.805,-27.832,-46.387,-45.898,0.000,0
1601748344.598,-53.711,-35.156,-48.828,-52.246,0.000,0
1601748344.602,-52.734,-33.203,-50.781,-53.711,0.000,0
1601748344.606,-62.500,-30.273,-55.664,-58.594,0.000,0
1601748344.610,-66.895,-34.668,-56.152,-58.105,0.000,0
1601748344.613,-57.129,-35.156,-46.387,-47.363,0.000,0
1601748344.617,-57.129,-31.738,-41.504,-34.668,0.000,0
1601748344.621,-56.152,-28.320,-46.875,-41.016,0.000,0
1601748344.625,-47.852,-26.367,-48.340,-52.734,0.000,0
1601748344.629,-49.805,-28.320,-45.898,-51.758,0.000,0
1601748344.633,-48.828,-35.645,-50.781,-46.875,0.000,0
1601748344.637,-52.734,-35.156,-55.176,-39.551,0.000,0
1601748344.641,-53.711,-33.203,-55.664,-40.039,0.000,0
1601748344.645,-52.734,-33.691,-54.199,-53.711,0.000,0
1601748344.649,-60.547,-33.691,-52.734,-65.918,0.000,0
1601748344.652,-59.082,-33.691,-52.246,-51.758,0.000,0
1601748344.656,-56.152,-31.250,-50.293,-45.410,0.000,0
1601748344.660,-53.711,-28.320,-44.922,-55.176,0.000,0
1601748344.664,-48.828,-26.367,-41.016,-53.711,0.000,0
1601748344.668,-53.711,-31.250,-42.480,-46.875,0.000,0
1601748344.672,-57.617,-40.039,-48.340,-50.781,0.000,0
1601748344.676,-49.316,-39.551,-44.922,-51.758,0.000,0
1601748344.680,-48.340,-35.156,-41.992,-52.246,0.000,0
1601748344.684,-50.781,-31.250,-49.805,-53.223,0.000,0
1601748344.688,-51.270,-33.203,-52.734,-49.316,0.000,0
1601748344.692,-55.176,-30.762,-50.781,-47.852,0.000,0
1601748344.695,-54.199,-25.391,-49.316,-45.410,0.000,0
1601748344.699,-50.781,-27.832,-46.387,-37.109,0.000,0
1601748344.703,-52.734,-31.250,-45.410,-37.598,0.000,0
1601748344.707,-54.199,-31.738,-41.016,-43.945,0.000,0
1601748344.711,-54.199,-28.809,-41.504,-39.062,0.000,0
1601748344.715,-51.758,-29.785,-47.363,-32.715,0.000,0
1601748344.719,-53.223,-36.133,-49.805,-43.945,0.000,0
1601748344.723,-60.059,-38.574,-54.688,-50.781,0.000,0
1601748344.727,-62.500,-40.039,-54.688,-42.480,0.000,0
1601748344.731,-56.152,-36.133,-51.270,-33.691,0.000,0
1601748344.735,-51.270,-32.715,-54.688,-38.574,0.000,0
1601748344.738,-53.711,-36.133,-53.711,-41.504,0.000,0
1601748344.742,-57.617,-32.715,-47.363,-37.598,0.000,0
1601748344.746,-56.641,-25.879,-43.945,-40.039,0.000,0
1601748344.750,-62.012,-28.809,-41.016,-45.898,0.000,0
1601748344.754,-66.895,-27.344,-42.480,-46.387,0.000,0
1601748344.758,-63.965,-28.809,-47.363,-44.922,0.000,0
1601748344.762,-60.547,-33.691,-42.480,-44.434,0.000,0
1601748344.766,-54.199,-33.203,-38.574,-49.805,0.000,0
1601748344.770,-54.688,-35.645,-43.945,-47.363,0.000,0
1601748344.774,-48.340,-36.133,-43.457,-34.668,0.000,0
1601748344.777,-49.316,-36.133,-42.480,-41.016,0.000,0
1601748344.781,-58.594,-32.227,-46.875,-57.129,0.000,0
1601748344.785,-57.617,-31.250,-46.387,-57.129,0.000,0
1601748344.789,-57.617,-36.133,-49.805,-50.293,0.000,0
1601748344.793,-57.129,-32.715,-53.711,-50.293,0.000,0
1601748344.797,-55.176,-29.297,-51.270,-48.828,0.000,0
1601748344.801,-58.594,-32.227,-49.316,-50.781,0.000,0
1601748344.805,-59.570,-31.738,-49.805,-56.641,0.000,0
1601748344.809,-58.105,-31.738,-50.293,-53.223,0.000,0
1601748344.813,-50.293,-32.227,-46.387,-45.898,0.000,0
1601748344.817,-48.828,-31.738,-48.340,-42.969,0.000,0
1601748344.820,-55.176,-31.250,-54.199,-47.363,0.000,0
1601748344.824,-56.641,-30.762,-48.828,-48.828,0.000,0
1601748344.828,-62.012,-34.180,-41.992,-46.387,0.000,0
1601748344.832,-61.035,-35.645,-47.852,-46.875,0.000,0
1601748344.836,-54.199,-36.133,-52.246,-39.551,0.000,0
1601748344.840,-56.641,-30.273,-48.828,-41.504,0.000,0
1601748344.844,-63.965,-30.273,-49.805,-48.340,0.000,0
1601748344.848,-66.406,-32.715,-45.898,-43.945,0.000,0
1601748344.852,-65.430,-34.180,-43.945,-42.480,0.000,0
1601748344.856,-61.035,-36.621,-47.363,-29.297,0.000,0
1601748344.860,-62.988,-33.691,-49.316,-29.785,0.000,0
1601748344.863,-63.477,-30.762,-54.199,-47.852,0.000,0
1601748344.867,-59.082,-27.832,-55.176,-46.387,0.000,0
1601748344.871,-57.617,-24.414,-53.711,-33.691,0.000,0
1601748344.875,-51.270,-23.438,-52.246,-26.367,0.000,0
1601748344.879,-55.664,-28.809,-48.828,-28.809,0.000,0
1601748344.883,-64.453,-28.809,-49.805,-41.992,0.000,0
1601748344.887,-66.406,-27.832,-47.852,-41.504,0.000,0
1601748344.891,-72.754,-34.668,-42.480,-39.551,0.000,0
1601748344.895,-71.289,-32.715,-47.363,-29.785,0.000,0
1601748344.899,-64.453,-27.344,-47.363,-23.926,0.000,0
1601748344.902,-64.941,-26.855,-47.363,-37.598,0.000,0
1601748344.906,-64.941,-32.227,-56.641,-44.434,0.000,0
1601748344.910,-55.664,-33.691,-50.293,-34.180,0.000,0
1601748344.914,-53.711,-35.645,-47.852,-24.902,0.000,0
1601748344.918,-56.152,-34.668,-51.758,-32.715,0.000,0
1601748344.922,-55.664,-32.227,-45.410,-44.922,0.000,0
1601748344.926,-56.152,-31.738,-49.805,-38.574,0.000,0
1601748344.930,-55.176,-28.320,-53.223,-27.832,0.000,0
1601748344.934,-51.270,-25.879,-48.340,-23.926,0.000,0
1601748344.938,-49.805,-26.367,-50.293,-17.090,0.000,0
1601748344.942,-56.641,-30.762,-52.734,-28.809,0.000,0
1601748344.945,-62.988,-34.180,-52.246,-45.410,0.000,0
1601748344.949,-67.871,-37.598,-55.176,-50.781,0.000,0
1601748344.953,-60.059,-32.715,-54.199,-47.363,0.000,0
1601748344.957,-48.340,-26.855,-47.852,-25.391,0.000,0
1601748344.961,-45.898,-28.809,-45.410,-24.414,0.000,0
1601748344.965,-50.781,-29.297,-40.527,-37.109,0.000,0
1601748344.969,-58.594,-32.715,-36.133,-33.691,0.000,0
1601748344.973,-51.758,-30.273,-39.551,-31.250,0.000,0
1601748344.977,-49.316,-26.367,-47.363,-31.738,0.000,0
1601748344.981,-56.152,-34.668,-51.270,-33.691,0.000,0
1601748344.985,-56.152,-37.109,-49.805,-39.551,0.000,0
1601748344.988,-55.176,-29.785,-51.758,-41.992,0.000,0
1601748344.992,-59.082,-24.902,-51.270,-41.016,0.000,0
1601748344.996,-60.059,-24.414,-48.828,-32.227,0.000,0
1601748345.000,-50.781,-24.902,-50.293,-24.902,0.000,0
1601748345.004,-44.922,-25.391,-48.828,-23.438,0.000,0
1601748345.008,-55.176,-29.297,-46.875,-24.902,0.000,0
1601748345.012,-58.594,-26.855,-51.270,-25.391,0.000,0
1601748345.016,-54.199,-30.273,-49.316,-28.320,0.000,0
1601748345.020,-59.082,-33.691,-51.270,-42.969,0.000,0
1601748345.024,-68.848,-30.273,-55.176,-50.293,0.000,0
1601748345.027,-67.871,-25.391,-49.805,-55.664,0.000,0
1601748345.031,-58.594,-25.391,-44.922,-55.176,0.000,0
1601748345.035,-56.641,-32.715,-48.828,-52.734,0.000,0
1601748345.039,-61.035,-35.156,-52.734,-56.152,0.000,0
1601748345.043,-64.453,-31.738,-49.805,-56.152,0.000,0
1601748345.047,-70.312,-29.785,-49.316,-51.270,0.000,0
1601748345.051,-70.312,-32.227,-53.711,-41.504,0.000,0
1601748345.055,-64.941,-30.762,-53.223,-40.527,0.000,0
1601748345.059,-65.918,-34.668,-50.781,-38.086,0.000,0
1601748345.063,-63.477,-34.668,-48.828,-38.086,0.000,0
1601748345.067,-55.176,-30.273,-43.945,-45.410,0.000,0
1601748345.070,-52.246,-37.598,-41.016,-37.598,0.000,0
1601748345.074,-53.711,-36.621,-42.969,-22.461,0.000,0
1601748345.078,-43.945,-27.832,-46.875,-14.160,0.000,0
1601748345.082,-46.875,-27.344,-48.340,-22.461,0.000,0
1601748345.086,-56.152,-32.715,-51.270,-28.809,0.000,0
1601748345.090,-56.152,-30.273,-50.781,-27.832,0.000,0
1601748345.094,-60.547,-28.809,-48.828,-28.809,0.000,0
1601748345.098,-57.617,-34.180,-48.340,-23.926,0.000,0
1601748345.102,-57.617,-36.133,-48.828,-22.949,0.000,0
1601748345.106,-59.082,-32.715,-47.852,-30.273,0.000,0
1601748345.110,-53.223,-32.715,-46.387,-40.527,0.000,0
1601748345.113,-58.594,-33.203,-47.852,-39.551,0.000,0
1601748345.117,-53.223,-27.832,-47.363,-39.062,0.000,0
1601748345.121,-46.875,-27.344,-45.898,-49.805,0.000,0
1601748345.125,-55.176,-30.762,-46.387,-48.340,0.000,0
1601748345.129,-53.711,-31.250,-40.039,-34.668,0.000,0
1601748345.133,-45.898,-27.832,-35.156,-25.391,0.000,0
1601748345.137,-43.945,-22.949,-36.621,-18.066,0.000,0
1601748345.141,-48.340,-23.438,-38.574,-13.184,0.000,0
1601748345.145,-50.781,-27.344,-39.551,-20.020,0.000,0
1601748345.149,-54.199,-34.668,-36.133,-27.344,0.000,0
1601748345.152,-61.035,-34.668,-40.527,-33.203,0.000,0
1601748345.156,-63.965,-34.668,-44.434,-31.738,0.000,0
1601748345.160,-63.965,-36.133,-42.480,-32.227,0.000,0
1601748345.164,-65.430,-32.227,-41.992,-38.086,0.000,0
1601748345.168,-56.641,-23.926,-36.133,-38.574,0.000,0
1601748345.172,-50.293,-21.484,-33.203,-32.715,0.000,0
1601748345.176,-55.664,-23.926,-39.062,-24.902,0.000,0
1601748345.180,-58.594,-22.949,-39.551,-25.391,0.000,0
1601748345.184,-63.477,-25.391,-41.016,-40.039,0.000,0
1601748345.188,-62.012,-22.461,-39.551,-47.852,0.000,0
1601748345.192,-51.758,-21.484,-36.133,-31.250,0.000,0
1601748345.195,-49.805,-29.785,-37.598,-17.090,0.000,0
1601748345.199,-52.734,-23.438,-40.039,-22.949,0.000,0
1601748345.203,-52.246,-17.578,-36.621,-29.297,0.000,0
1601748345.207,-47.363,-20.020,-36.621,-24.414,0.000,0
1601748345.211,-50.781,-23.926,-39.551,-34.180,0.000,0
1601748345.215,-55.664,-23.926,-36.133,-40.039,0.000,0
1601748345.219,-46.387,-22.949,-35.156,-26.855,0.000,0
1601748345.223,-49.805,-26.367,-38.574,-33.691,0.000,0
1601748345.227,-50.781,-22.949,-41.992,-51.270,0.000,0
1601748345.231,-48.828,-22.461,-47.852,-50.293,0.000,0
1601748345.235,-53.223,-24.414,-48.340,-39.062,0.000,0
1601748345.238,-55.664,-27.344,-48.828,-32.227,0.000,0
1601748345.242,-62.012,-30.273,-46.387,-38.574,0.000,0
1601748345.246,-66.406,-30.273,-43.945,-49.316,0.000,0
1601748345.250,-59.082,-26.855,-40.039,-43.945,0.000,0
1601748345.254,-52.734,-21.973,-32.715,-23.438,0.000,0
1601748345.258,-53.223,-24.414,-37.598,-27.832,0.000,0
1601748345.262,-49.805,-25.879,-37.109,-39.551,0.000,0
1601748345.266,-52.734,-22.461,-33.203,-44.922,0.000,0
1601748345.270,-58.105,-26.855,-45.410,-49.805,0.000,0
1601748345.274,-50.781,-26.367,-46.387,-50.293,0.000,2
1601748345.277,-45.898,-23.438,-41.992,-36.621,0.000,0
1601748345.281,-58.105,-27.344,-44.434,-32.715,0.000,0
1601748345.285,-62.988,-30.273,-42.969,-41.016,0.000,0
1601748345.289,-59.570,-27.344,-43.945,-32.715,0.000,0
1601748345.293,-57.129,-23.438,-45.410,-32.715,0.000,0
1601748345.297,-52.246,-24.414,-40.527,-30.273,0.000,0
1601748345.301,-50.781,-24.414,-38.086,-26.855,0.000,0
1601748345.305,-47.852,-20.508,-34.668,-30.762,0.000,0
1601748345.309,-47.852,-20.020,-36.133,-31.250,0.000,0
1601748345.313,-48.828,-23.438,-40.527,-34.180,0.000,0
1601748345.317,-48.340,-23.926,-40.039,-30.273,0.000,0
1601748345.320,-51.270,-26.855,-36.133,-31.250,0.000,0
1601748345.324,-56.641,-30.273,-39.551,-50.293,0.000,0
1601748345.328,-60.547,-28.809,-41.504,-44.922,0.000,0
1601748345.332,-58.594,-27.832,-39.062,-37.109,0.000,0
1601748345.336,-51.270,-28.320,-42.969,-42.969,0.000,0
1601748345.340,-49.805,-27.832,-46.875,-32.715,0.000,0
1601748345.344,-52.734,-25.879,-42.480,-31.738,0.000,0
1601748345.348,-53.223,-24.902,-38.574,-30.273,0.000,0
1601748345.352,-50.781,-23.926,-41.504,-22.461,0.000,0
1601748345.356,-46.875,-28.320,-44.922,-22.461,0.000,0
1601748345.360,-49.316,-32.227,-44.922,-31.250,0.000,0
1601748345.363,-52.734,-29.297,-50.293,-46.875,0.000,0
1601748345.367,-46.387,-30.273,-50.781,-46.875,0.000,0
1601748345.371,-51.270,-31.250,-46.875,-50.781,0.000,0
1601748345.375,-54.199,-27.832,-52.246,-54.688,0.000,0
1601748345.379,-50.781,-27.344,-53.223,-47.852,0.000,0
1601748345.383,-54.688,-29.785,-51.758,-51.270,0.000,0
1601748345.387,-54.688,-28.809,-49.316,-56.641,0.000,0
1601748345.391,-55.664,-32.227,-43.945,-52.246,0.000,0
1601748345.395,-57.129,-33.691,-42.480,-41.992,0.000,0
1601748345.399,-53.223,-29.785,-41.016,-33.203,0.000,0
1601748345.402,-54.199,-29.785,-40.039,-41.992,0.000,0
1601748345.406,-52.246,-31.250,-41.992,-48.828,0.000,0
1601748345.410,-50.781,-27.344,-41.992,-44.922,0.000,0
1601748345.414,-43.945,-21.484,-40.039,-38.574,0.000,0
1601748345.418,-41.016,-19.043,-41.504,-32.227,0.000,0
1601748345.422,-39.551,-19.531,-43.945,-39.551,0.000,0
1601748345.426,-43.457,-20.996,-44.434,-46.387,0.000,0
1601748345.430,-49.805,-20.508,-46.875,-40.527,0.000,0
1601748345.434,-41.504,-24.414,-47.363,-29.297,0.000,0
1601748345.438,-40.527,-24.414,-43.945,-28.809,0.000,0
1601748345.442,-42.969,-19.531,-44.922,-32.227,0.000,0
1601748345.445,-38.086,-16.113,-43.945,-26.367,0.000,0
1601748345.449,-36.133,-18.555,-43.945,-23.926,0.000,0
1601748345.453,-38.574,-26.367,-50.293,-29.785,0.000,0
1601748345.457,-37.598,-19.531,-52.246,-31.738,0.000,0
1601748345.461,-36.133,-14.160,-50.781,-27.832,0.000,0
1601748345.465,-42.480,-24.414,-51.270,-35.645,0.000,0
1601748345.469,-44.922,-26.367,-47.852,-36.133,0.000,0
1601748345.473,-39.551,-21.484,-44.434,-31.738,0.000,0
1601748345.477,-41.016,-24.414,-44.922,-38.086,0.000,0
1601748345.481,-43.457,-25.879,-45.898,-40.039,0.000,0
1601748345.485,-40.527,-28.809,-43.457,-30.273,0.000,0
1601748345.488,-44.922,-30.273,-42.969,-26.367,0.000,0
1601748345.492,-48.340,-24.902,-41.504,-24.902,0.000,0
1601748345.496,-45.410,-27.344,-41.504,-19.531,0.000,0
1601748345.500,-48.340,-32.715,-41.016,-21.973,0.000,0
1601748345.504,-52.734,-32.227,-43.457,-37.109,0.000,0
1601748345.508,-52.246,-30.273,-46.387,-42.969,0.000,0
1601748345.512,-51.270,-30.762,-41.504,-36.133,0.000,0
1601748345.516,-56.152,-32.715,-45.410,-35.645,0.000,0
1601748345.520,-55.176,-34.180,-46.387,-42.969,0.000,0
1601748345.524,-52.734,-32.227,-41.504,-47.363,0.000,0
1601748345.527,-54.688,-29.297,-44.434,-44.922,0.000,0
1601748345.531,-51.758,-24.902,-46.387,-46.875,0.000,0
1601748345.535,-50.781,-24.902,-44.434,-40.527,0.000,0
1601748345.539,-47.363,-23.926,-41.992,-32.715,0.000,0
1601748345.543,-46.387,-20.508,-41.992,-41.992,0.000,0
1601748345.547,-45.410,-21.973,-41.016,-41.016,0.000,0
1601748345.551,-39.062,-19.043,-41.992,-33.203,0.000,0
1601748345.555,-41.992,-17.090,-40.039,-28.809,0.000,0
1601748345.559,-42.480,-18.555,-41.504,-24.414,0.000,0
1601748345.563,-49.316,-22.949,-46.387,-38.086,0.000,0
1601748345.567,-59.082,-22.949,-46.875,-50.293,0.000,0
1601748345.570,-57.617,-23.926,-47.363,-51.758,0.000,0
1601748345.574,-52.246,-26.367,-46.875,-40.039,0.000,0
1601748345.578,-53.223,-23.926,-43.457,-35.645,0.000,0
1601748345.582,-52.734,-24.414,-41.016,-45.410,0.000,0
1601748345.586,-58.594,-27.832,-46.875,-40.039,0.000,0
1601748345.590,-62.988,-31.250,-50.781,-31.738,0.000,0
1601748345.594,-58.594,-26.855,-46.387,-34.180,0.000,0
1601748345.598,-53.711,-27.344,-41.992,-32.715,0.000,0
1601748345.602,-50.781,-27.832,-38.574,-33.691,0.000,0
1601748345.606,-58.594,-24.414,-42.480,-43.945,0.000,0
1601748345.610,-62.012,-24.902,-47.363,-45.898,0.000,0
1601748345.613,-53.223,-25.879,-46.387,-34.668,0.000,0
1601748345.617,-51.270,-28.320,-44.922,-31.250,0.000,0
1601748345.621,-57.617,-27.344,-46.387,-42.480,0.000,0
1601748345.625,-56.641,-23.438,-44.434,-48.828,0.000,0
1601748345.629,-50.781,-29.785,-42.969,-45.898,0.000,0
1601748345.633,-48.340,-31.738,-43.945,-33.691,0.000,0
1601748345.637,-47.852,-29.297,-45.410,-27.344,0.000,0
1601748345.641,-48.828,-32.715,-50.293,-30.762,0.000,0
1601748345.645,-60.059,-36.133,-49.316,-39.062,0.000,0
1601748345.649,-62.988,-37.109,-46.875,-38.086,0.000,0
1601748345.652,-50.293,-29.785,-41.992,-29.785,0.000,0
1601748345.656,-43.945,-24.414,-38.574,-25.879,0.000,0
1601748345.660,-45.410,-26.367,-41.992,-25.391,0.000,0
1601748345.664,-50.293,-26.855,-46.387,-37.598,0.000,0
1601748345.668,-47.852,-22.461,-45.410,-38.086,0.000,0
1601748345.672,-38.574,-20.508,-41.504,-25.879,0.000,0
1601748345.676,-38.574,-27.344,-46.387,-26.367,0.000,0
1601748345.680,-44.434,-30.762,-49.316,-30.273,0.000,0
1601748345.684,-43.945,-30.273,-42.480,-34.668,0.000,0
1601748345.688,-42.480,-33.203,-42.480,-39.062,0.000,0
1601748345.692,-43.457,-32.715,-42.480,-29.785,0.000,0
1601748345.695,-43.945,-34.180,-43.457,-25.391,0.000,0
1601748345.699,-48.340,-32.715,-43.457,-36.621,0.000,0
1601748345.703,-46.875,-25.879,-43.457,-41.504,0.000,0
1601748345.707,-46.875,-24.902,-46.875,-41.504,0.000,0
1601748345.711,-48.340,-27.344,-43.945,-36.621,0.000,0
1601748345.715,-48.340,-25.879,-47.363,-36.133,0.000,0
1601748345.719,-49.316,-22.949,-47.852,-44.434,0.000,0
1601748345.723,-51.758,-24.902,-44.922,-43.457,0.000,0
1601748345.727,-57.617,-32.715,-47.852,-45.410,0.000,0
1601748345.731,-55.664,-32.715,-46.875,-42.480,0.000,0
1601748345.735,-54.199,-27.832,-41.992,-35.156,0.000,0
1601748345.738,-55.176,-33.203,-41.504,-36.621,0.000,0
1601748345.742,-62.012,-37.598,-46.875,-46.387,0.000,0
1601748345.746,-63.477,-33.691,-48.828,-56.641,0.000,0
1601748345.750,-59.570,-32.715,-46.875,-41.016,0.000,0
1601748345.754,-60.059,-32.227,-46.387,-33.691,0.000,0
1601748345.758,-56.641,-30.762,-45.410,-42.969,0.000,0
1601748345.762,-58.594,-24.414,-44.922,-46.387,0.000,0
1601748345.766,-62.012,-24.902,-42.969,-52.246,0.000,0
1601748345.770,-62.012,-29.785,-43.945,-46.875,0.000,0
1601748345.774,-56.641,-29.297,-46.875,-44.922,0.000,0
1601748345.777,-49.316,-32.227,-47.363,-45.410,0.000,0
1601748345.781,-47.852,-30.273,-47.852,-42.969,0.000,0
1601748345.785,-49.805,-28.320,-44.922,-37.109,0.000,0
1601748345.789,-51.758,-25.391,-48.340,-38.086,0.000,0
1601748345.793,-50.293,-25.391,-47.852,-38.574,0.000,0
1601748345.797,-47.852,-26.367,-46.875,-36.133,0.000,0
1601748345.801,-49.316,-25.391,-47.852,-43.945,0.000,0
1601748345.805,-52.734,-29.297,-43.945,-46.875,0.000,0
1601748345.809,-50.781,-29.785,-42.480,-52.734,0.000,0
1601748345.813,-53.223,-34.668,-43.945,-55.664,0.000,0
1601748345.817,-59.082,-35.156,-43.945,-50.293,0.000,0
1601748345.820,-58.105,-28.809,-39.551,-43.945,0.000,0
1601748345.824,-65.430,-32.715,-42.480,-40.039,0.000,0
1601748345.828,-69.824,-31.250,-50.781,-44.434,0.000,0
1601748345.832,-57.129,-26.367,-45.898,-40.527,0.000,0
1601748345.836,-53.223,-27.344,-45.410,-29.297,0.000,0
1601748345.840,-59.082,-26.855,-50.293,-25.879,0.000,0
1601748345.844,-56.641,-26.855,-49.805,-33.203,0.000,0
1601748345.848,-56.641,-25.391,-46.387,-35.156,0.000,0
1601748345.852,-51.758,-23.926,-43.457,-23.438,0.000,0
1601748345.856,-47.852,-26.855,-42.480,-13.672,0.000,0
1601748345.860,-57.617,-34.668,-40.527,-12.695,0.000,0
1601748345.863,-58.594,-36.133,-40.527,-27.344,0.000,0
1601748345.867,-53.711,-30.273,-42.480,-40.527,0.000,0
1601748345.871,-55.664,-30.762,-40.527,-35.645,0.000,0
1601748345.875,-51.270,-29.297,-44.434,-31.738,0.000,0
1601748345.879,-47.852,-23.926,-41.992,-25.391,0.000,0
1601748345.883,-54.688,-28.809,-38.574,-29.297,0.000,0
1601748345.887,-57.617,-32.227,-38.086,-33.203,0.000,0
1601748345.891,-54.688,-32.227,-39.551,-27.344,0.000,0
1601748345.895,-47.852,-28.809,-43.945,-27.344,0.000,0
1601748345.899,-46.387,-27.344,-45.898,-24.902,0.000,0
1601748345.902,-46.875,-27.344,-45.410,-22.461,0.000,0
1601748345.906,-46.387,-29.297,-44.434,-20.508,0.000,0
1601748345.910,-46.387,-27.344,-46.387,-18.066,0.000,0
1601748345.914,-45.898,-24.414,-48.828,-24.902,0.000,0
1601748345.918,-54.688,-26.855,-46.387,-26.367,0.000,0
1601748345.922,-57.129,-28.809,-41.992,-32.715,0.000,0
1601748345.926,-65.918,-35.156,-44.922,-43.945,0.000,0
1601748345.930,-74.219,-40.039,-42.480,-36.621,0.000,0
1601748345.934,-70.801,-39.062,-41.992,-25.391,0.000,0
1601748345.938,-66.406,-37.109,-46.387,-20.508,0.000,0
1601748345.942,-60.547,-28.320,-42.480,-27.344,0.000,0
1601748345.945,-61.035,-27.344,-45.410,-33.691,0.000,0
1601748345.949,-65.430,-29.785,-49.316,-32.227,0.000,0
1601748345.953,-63.477,-30.762,-46.875,-22.949,0.000,0
1601748345.957,-59.082,-29.297,-48.340,-18.555,0.000,0
1601748345.961,-58.105,-27.344,-49.316,-27.832,0.000,0
1601748345.965,-56.641,-27.344,-47.852,-28.320,0.000,0
1601748345.969,-57.129,-27.344,-45.410,-26.855,0.000,0
1601748345.973,-56.641,-26.367,-44.434,-26.855,0.000,0
1601748345.977,-53.711,-23.926,-43.457,-19.043,0.000,0
1601748345.981,-55.664,-28.320,-47.363,-27.344,0.000,0
1601748345.985,-57.129,-32.227,-55.176,-45.410,0.000,0
1601748345.988,-60.547,-31.738,-55.176,-41.016,0.000,0
1601748345.992,-61.523,-32.715,-51.270,-28.809,0.000,0
1601748345.996,-56.641,-32.227,-50.293,-26.367,0.000,0
1601748346.000,-56.641,-29.785,-48.340,-31.738,0.000,0
1601748346.004,-62.988,-29.785,-48.340,-35.645,0.000,0
1601748346.008,-60.059,-27.832,-46.387,-20.996,0.000,0
1601748346.012,-60.547,-32.227,-44.922,-20.996,0.000,0
1601748346.016,-67.383,-39.551,-46.875,-34.668,0.000,0
1601748346.020,-64.453,-35.645,-47.363,-27.344,0.000,0
1601748346.024,-68.848,-37.109,-44.922,-35.156,0.000,0
1601748346.027,-71.777,-38.574,-44.434,-40.527,0.000,0
1601748346.031,-62.500,-33.691,-45.410,-36.621,0.000,0
1601748346.035,-65.918,-38.086,-50.293,-38.086,0.000,0
1601748346.039,-72.754,-42.480,-52.734,-37.109,0.000,0
1601748346.043,-77.148,-39.551,-46.875,-42.969,0.000,0
1601748346.047,-78.125,-39.062,-45.898,-51.758,0.000,0
1601748346.051,-76.660,-41.992,-48.828,-48.340,0.000,0
1601748346.055,-77.637,-41.992,-52.734,-41.992,0.000,0
1601748346.059,-72.266,-41.992,-53.711,-33.691,0.000,0
1601748346.063,-69.824,-44.434,-50.293,-34.180,0.000,0
1601748346.067,-68.848,-44.434,-49.805,-41.016,0.000,0
1601748346.070,-69.824,-43.457,-49.316,-43.457,0.000,0
1601748346.074,-75.195,-43.945,-46.875,-41.992,0.000,0
1601748346.078,-69.336,-41.504,-51.270,-35.156,0.000,0
1601748346.082,-70.312,-39.062,-55.176,-39.062,0.000,0
1601748346.086,-77.637,-40.527,-55.176,-56.152,0.000,0
1601748346.090,-73.242,-41.504,-52.734,-45.410,0.000,0
1601748346.094,-67.871,-36.133,-49.316,-29.297,0.000,0
1601748346.098,-67.383,-38.574,-50.781,-34.180,0.000,0
1601748346.102,-65.430,-41.992,-51.758,-45.898,0.000,0
1601748346.106,-62.012,-40.039,-51.270,-53.223,0.000,0
1601748346.110,-63.477,-37.598,-49.805,-49.805,0.000,0
1601748346.113,-61.035,-32.715,-50.781,-44.922,0.000,0
1601748346.117,-56.641,-32.227,-48.828,-36.133,0.000,0
1601748346.121,-61.035,-34.180,-49.805,-39.062,0.000,0
1601748346.125,-60.547,-32.715,-48.340,-44.922,0.000,0
1601748346.129,-52.734,-29.785,-41.992,-52.246,0.000,0
1601748346.133,-41.504,-24.414,-38.574,-44.434,0.000,0
1601748346.137,-33.691,-26.367,-38.086,-32.715,0.000,0
1601748346.141,-35.645,-28.809,-37.109,-25.879,0.000,0
1601748346.145,-48.340,-26.367,-40.527,-25.391,0.000,0
1601748346.149,-53.711,-29.785,-43.945,-34.180,0.000,0
1601748346.152,-50.781,-35.645,-40.527,-30.273,0.000,0
1601748346.156,-54.199,-35.645,-41.016,-30.273,0.000,0
1601748346.160,-52.734,-38.086,-38.086,-30.273,0.000,0
1601748346.164,-55.176,-43.945,-38.574,-35.156,0.000,0
1601748346.168,-60.059,-43.457,-46.387,-44.434,0.000,0
1601748346.172,-58.594,-41.016,-48.340,-33.203,0.000,0
1601748346.176,-56.641,-38.574,-48.340,-27.344,0.000,0
1601748346.180,-59.082,-36.621,-50.781,-35.645,0.000,0
1601748346.184,-54.199,-35.156,-53.223,-34.180,0.000,0
1601748346.188,-45.898,-33.691,-49.805,-21.973,0.000,0
1601748346.192,-41.992,-31.250,-49.316,-7.324,0.000,0
1601748346.195,-42.969,-32.227,-53.711,-16.602,0.000,0
1601748346.199,-44.434,-33.691,-50.781,-29.785,0.000,0
1601748346.203,-45.410,-32.715,-49.316,-29.297,0.000,0
1601748346.207,-55.176,-32.715,-47.852,-28.809,0.000,0
1601748346.211,-59.570,-31.738,-44.922,-27.344,0.000,0
1601748346.215,-55.176,-27.344,-44.434,-13.184,0.000,0
1601748346.219,-53.223,-21.973,-44.434,-13.672,0.000,0
1601748346.223,-52.734,-22.461,-37.598,-22.949,0.000,0
1601748346.227,-46.387,-22.461,-37.109,-20.508,0.000,0
1601748346.231,-51.758,-22.949,-46.387,-25.391,0.000,0
1601748346.235,-53.711,-25.879,-48.340,-29.297,0.000,0
1601748346.238,-53.711,-30.273,-45.410,-25.391,0.000,0
1601748346.242,-58.594,-33.203,-42.969,-35.156,0.000,0
1601748346.246,-57.129,-33.691,-41.992,-44.922,0.000,0
1601748346.250,-54.688,-29.297,-43.457,-39.551,0.000,0
1601748346.254,-51.758,-29.297,-46.875,-30.273,0.000,0
1601748346.258,-50.781,-28.809,-44.434,-20.020,0.000,0
1601748346.262,-52.734,-28.809,-38.086,-20.020,0.000,0
1601748346.266,-52.734,-28.320,-38.574,-26.367,0.000,0
1601748346.270,-51.758,-22.949,-40.039,-25.879,0.000,0
1601748346.274,-46.387,-24.902,-36.133,-13.184,0.000,0
1601748346.277,-43.457,-27.344,-41.016,-13.672,0.000,0
1601748346.281,-41.992,-24.902,-42.969,-16.113,0.000,0
1601748346.285,-38.086,-24.902,-35.156,-17.578,0.000,0
1601748346.289,-39.551,-24.414,-41.992,-30.762,0.000,0
1601748346.293,-42.969,-26.367,-48.828,-23.438,0.000,0
1601748346.297,-47.363,-26.855,-50.293,-7.324,0.000,0
1601748346.301,-51.270,-30.273,-52.246,-18.066,0.000,0
1601748346.305,-52.734,-32.227,-54.199,-31.738,0.000,0
1601748346.309,-53.223,-28.320,-48.340,-31.738,0.000,0
1601748346.313,-47.363,-27.832,-38.574,-25.879,0.000,0
1601748346.317,-39.551,-28.809,-37.598,-16.602,0.000,0
1601748346.320,-44.922,-25.879,-40.527,-25.391,0.000,0
1601748346.324,-45.898,-21.973,-37.598,-29.785,0.000,0
1601748346.328,-36.133,-24.902,-35.156,-27.832,0.000,0
1601748346.332,-37.109,-22.461,-41.504,-26.367,0.000,0
1601748346.336,-39.062,-15.137,-41.016,-12.207,0.000,1
1601748346.340,-36.133,-15.137,-42.969,-6.348,0.000,0
1601748346.344,-36.133,-20.996,-47.852,-12.207,0.000,0
1601748346.348,-38.086,-21.484,-41.016,-9.766,0.000,0
1601748346.352,-44.434,-20.996,-38.574,-13.672,0.000,0
1601748346.356,-48.340,-22.461,-42.969,-21.484,0.000,0
1601748346.360,-47.852,-24.414,-44.434,-20.020,0.000,0
1601748346.363,-48.828,-27.832,-45.898,-19.043,0.000,0
1601748346.367,-54.199,-29.297,-44.434,-24.902,0.000,0
1601748346.371,-55.176,-29.297,-44.922,-25.391,0.000,0
1601748346.375,-51.270,-29.297,-49.316,-17.090,0.000,0
1601748346.379,-54.199,-30.273,-49.805,-25.879,0.000,0
1601748346.383,-56.152,-30.762,-46.387,-29.297,0.000,0
1601748346.387,-58.105,-31.250,-48.828,-24.414,0.000,0
1601748346.391,-55.176,-34.668,-51.270,-23.438,0.000,0
1601748346.395,-47.852,-32.227,-49.316,-17.090,0.000,0
1601748346.399,-49.316,-30.762,-48.828,-14.160,0.000,0
1601748346.402,-49.805,-29.785,-52.734,-26.855,0.000,0
1601748346.406,-46.875,-24.902,-56.152,-33.203,0.000,0
1601748346.410,-45.410,-27.832,-49.805,-22.949,0.000,0
1601748346.414,-42.480,-28.809,-48.828,-19.531,0.000,0
1601748346.418,-41.992,-29.297,-46.875,-14.160,0.000,0
1601748346.422,-40.039,-28.809,-42.480,-22.949,0.000,0
1601748346.426,-39.551,-22.949,-43.457,-40.039,0.000,0
1601748346.430,-39.551,-29.785,-43.457,-29.297,0.000,0
1601748346.434,-39.062,-35.645,-43.457,-15.625,0.000,0
1601748346.438,-42.969,-38.086,-44.434,-14.160,0.000,0
1601748346.442,-47.363,-39.062,-47.363,-21.484,0.000,0
1601748346.445,-52.734,-38.574,-49.805,-21.484,0.000,0
1601748346.449,-52.734,-38.574,-46.875,-17.090,0.000,0
1601748346.453,-44.434,-35.156,-44.922,-13.184,0.000,0
1601748346.457,-40.039,-32.715,-44.922,-9.766,0.000,0
1601748346.461,-38.086,-30.273,-49.805,-15.137,0.000,0
1601748346.465,-37.109,-33.691,-49.316,-24.902,0.000,0
1601748346.469,-34.668,-32.227,-46.875,-35.645,0.000,0
1601748346.473,-35.156,-29.785,-43.945,-23.438,0.000,0
1601748346.477,-38.574,-26.855,-41.016,-13.672,0.000,0
1601748346.481,-42.969,-24.414,-44.434,-27.344,0.000,0
1601748346.485,-45.410,-29.785,-44.434,-28.320,0.000,0
1601748346.488,-41.992,-30.762,-42.480,-22.461,0.000,0
1601748346.492,-41.992,-31.250,-44.434,-18.555,0.000,0
1601748346.496,-44.434,-33.691,-42.969,-17.090,0.000,0
1601748346.500,-48.340,-30.762,-46.875,-27.832,0.000,0
1601748346.504,-52.734,-30.762,-48.828,-31.738,0.000,0
1601748346.508,-52.246,-32.227,-46.875,-35.645,0.000,0
1601748346.512,-44.922,-30.762,-50.781,-37.598,0.000,0
1601748346.516,-39.551,-25.879,-44.434,-18.555,0.000,0
1601748346.520,-44.922,-22.949,-41.992,-19.531,0.000,0
1601748346.524,-41.504,-24.414,-44.922,-30.762,0.000,0
1601748346.527,-44.922,-26.367,-45.410,-26.367,0.000,0
1601748346.531,-52.246,-27.344,-50.781,-27.832,0.000,0
1601748346.535,-51.270,-29.297,-47.852,-21.973,0.000,0
1601748346.539,-50.781,-28.809,-41.504,-16.602,0.000,0
1601748346.543,-47.363,-25.879,-40.527,-24.902,0.000,0
1601748346.547,-53.711,-29.785,-48.340,-29.785,0.000,0
1601748346.551,-62.500,-34.180,-52.734,-30.762,0.000,0
1601748346.555,-54.688,-34.180,-51.758,-21.973,0.000,0
1601748346.559,-44.922,-29.785,-47.852,-18.066,0.000,0
1601748346.563,-46.875,-26.855,-50.781,-29.297,0.000,0
1601748346.567,-46.875,-30.762,-50.781,-31.250,0.000,0
1601748346.570,-43.457,-31.250,-45.410,-20.996,0.000,0
1601748346.574,-41.504,-27.832,-47.363,-18.555,0.000,0
1601748346.578,-49.316,-29.785,-45.898,-20.996,0.000,0
1601748346.582,-54.199,-32.227,-46.875,-32.227,0.000,0
1601748346.586,-55.176,-36.133,-49.805,-45.898,0.000,0
1601748346.590,-53.223,-36.621,-44.922,-37.598,0.000,0
1601748346.594,-49.316,-32.715,-42.969,-28.320,0.000,0
1601748346.598,-55.664,-28.809,-43.457,-26.367,0.000,0
1601748346.602,-54.688,-28.320,-41.016,-26.367,0.000,0
1601748346.606,-45.410,-26.367,-38.086,-33.691,0.000,0
1601748346.610,-42.969,-20.508,-39.062,-27.832,0.000,0
1601748346.613,-44.434,-29.297,-41.504,-19.531,0.000,0
1601748346.617,-43.945,-33.691,-44.434,-18.066,0.000,0
1601748346.621,-46.875,-29.785,-52.246,-20.508,0.000,0
1601748346.625,-51.270,-29.297,-51.270,-33.691,0.000,0
1601748346.629,-51.270,-27.344,-42.480,-33.691,0.000,0
1601748346.633,-51.270,-28.809,-47.363,-23.438,0.000,0
1601748346.637,-47.852,-32.227,-51.270,-17.578,0.000,0
1601748346.641,-48.340,-30.273,-45.898,-24.902,0.000,0
1601748346.645,-49.805,-28.809,-47.852,-25.879,0.000,0
1601748346.649,-50.781,-30.762,-55.664,-22.461,0.000,0
1601748346.652,-51.758,-30.762,-55.664,-25.879,0.000,0
1601748346.656,-48.340,-27.832,-51.758,-18.555,0.000,0
1601748346.660,-49.805,-30.273,-50.781,-14.648,0.000,0
1601748346.664,-55.664,-34.668,-45.410,-21.484,0.000,0
1601748346.668,-53.711,-32.715,-41.016,-17.090,0.000,0
1601748346.672,-53.711,-34.180,-45.410,-12.695,0.000,0
1601748346.676,-58.105,-39.062,-49.805,-13.672,0.000,0
1601748346.680,-56.641,-34.180,-50.781,-20.020,0.000,0
1601748346.684,-54.688,-30.273,-46.387,-29.785,0.000,0
1601748346.688,-57.129,-32.715,-42.969,-26.367,0.000,0
1601748346.692,-59.570,-32.227,-48.340,-31.738,0.000,0
1601748346.695,-53.223,-31.738,-50.293,-27.344,0.000,0
1601748346.699,-43.945,-28.320,-47.363,-20.508,0.000,0
1601748346.703,-42.480,-26.855,-46.875,-30.762,0.000,0
1601748346.707,-48.828,-29.785,-51.758,-37.598,0.000,0
1601748346.711,-48.340,-30.762,-48.828,-32.715,0.000,0
1601748346.715,-45.410,-29.297,-46.387,-21.973,0.000,0
1601748346.719,-47.852,-30.273,-52.734,-25.879,0.000,0
1601748346.723,-52.246,-34.180,-49.316,-37.109,0.000,0
1601748346.727,-47.852,-35.156,-40.527,-25.391,0.000,0
1601748346.731,-45.898,-33.203,-45.410,-21.973,0.000,0
1601748346.735,-45.410,-27.832,-45.898,-29.297,0.000,0
1601748346.738,-44.434,-26.855,-43.457,-20.508,0.000,0
1601748346.742,-47.363,-29.785,-43.457,-15.625,0.000,0
1601748346.746,-49.805,-31.250,-42.480,-29.785,0.000,0
1601748346.750,-50.293,-31.738,-38.574,-32.715,0.000,0
1601748346.754,-46.387,-28.320,-39.551,-26.367,0.000,0
1601748346.758,-38.086,-28.320,-44.434,-31.738,0.000,0
1601748346.762,-32.715,-30.273,-38.574,-32.715,0.000,0
1601748346.766,-35.156,-30.762,-39.062,-27.832,0.000,0
1601748346.770,-42.480,-33.203,-42.969,-27.344,0.000,0
1601748346.774,-44.434,-34.180,-43.457,-25.879,0.000,0
1601748346.777,-42.969,-31.250,-40.039,-16.602,0.000,0
1601748346.781,-47.852,-30.273,-40.527,-18.555,0.000,0
1601748346.785,-48.828,-30.762,-43.945,-36.133,0.000,0
1601748346.789,-54.199,-34.180,-44.922,-45.410,0.000,0
1601748346.793,-57.617,-35.156,-44.922,-35.645,0.000,0
1601748346.797,-47.852,-27.832,-45.410,-24.414,0.000,0
1601748346.801,-45.410,-25.879,-42.480,-24.414,0.000,0
1601748346.805,-45.410,-28.809,-39.551,-18.066,0.000,0
1601748346.809,-39.551,-21.973,-36.133,-14.648,0.000,0
1601748346.813,-37.109,-23.926,-38.086,-21.973,0.000,0
1601748346.817,-41.016,-28.320,-45.410,-16.602,0.000,0
1601748346.820,-43.945,-27.832,-46.387,-14.648,0.000,0
1601748346.824,-43.457,-31.250,-45.410,-30.273,0.000,0
1601748346.828,-50.781,-31.250,-40.039,-42.480,0.000,0
1601748346.832,-54.199,-28.320,-39.551,-31.738,0.000,0
1601748346.836,-46.387,-28.809,-45.898,-24.902,0.000,0
1601748346.840,-45.410,-33.203,-47.852,-33.691,0.000,0
1601748346.844,-40.527,-31.250,-48.340,-30.762,0.000,0
1601748346.848,-36.621,-30.762,-40.527,-25.391,0.000,0
1601748346.852,-43.457,-31.738,-41.016,-21.484,0.000,0
1601748346.856,-41.504,-32.227,-46.875,-16.602,0.000,0
1601748346.860,-41.992,-37.109,-48.828,-24.414,0.000,0
1601748346.863,-47.363,-36.133,-53.223,-34.668,0.000,0
1601748346.867,-46.875,-32.715,-47.363,-28.320,0.000,0
1601748346.871,-45.410,-34.180,-43.457,-18.066,0.000,0
1601748346.875,-43.457,-34.180,-43.457,-19.043,0.000,0
1601748346.879,-45.410,-30.273,-43.457,-26.855,0.000,0
1601748346.883,-49.316,-25.391,-41.992,-38.086,0.000,0
1601748346.887,-52.734,-28.809,-43.945,-38.574,0.000,0
1601748346.891,-48.340,-29.785,-44.922,-20.996,0.000,0
1601748346.895,-46.387,-29.297,-45.410,-19.043,0.000,0
1601748346.899,-44.434,-27.344,-46.387,-30.762,0.000,0
1601748346.902,-41.016,-23.926,-44.434,-27.832,0.000,0
1601748346.906,-42.480,-25.879,-49.316,-28.809,0.000,0
1601748346.910,-44.922,-27.832,-47.363,-31.250,0.000,0
1601748346.914,-43.945,-28.320,-45.410,-33.691,0.000,0
1601748346.918,-41.504,-27.344,-46.875,-27.832,0.000,0
1601748346.922,-44.434,-23.926,-46.875,-31.250,0.000,0
1601748346.926,-55.176,-21.484,-49.805,-44.434,0.000,0
1601748346.930,-62.500,-26.367,-48.340,-44.922,0.000,0
1601748346.934,-50.293,-28.809,-44.922,-37.109,0.000,0
1601748346.938,-39.551,-25.879,-48.340,-26.855,0.000,0
1601748346.942,-38.574,-24.902,-50.781,-25.879,0.000,0
1601748346.945,-37.598,-26.855,-46.387,-21.484,0.000,0
1601748346.949,-40.039,-31.738,-49.316,-20.508,0.000,0
1601748346.953,-44.434,-30.762,-52.246,-33.203,0.000,0
1601748346.957,-46.875,-27.344,-51.758,-29.785,0.000,0
1601748346.961,-50.781,-28.809,-44.922,-23.438,0.000,0
1601748346.965,-56.152,-32.227,-43.457,-32.227,0.000,0
1601748346.969,-51.270,-31.738,-49.805,-38.086,0.000,0
1601748346.973,-44.434,-34.180,-51.270,-41.016,0.000,0
1601748346.977,-46.875,-34.180,-51.270,-39.062,0.000,0
1601748346.981,-51.758,-33.203,-54.688,-41.992,0.000,0
1601748346.985,-53.711,-36.133,-52.246,-44.922,0.000,0
1601748346.988,-51.270,-34.668,-48.340,-47.852,0.000,0
1601748346.992,-53.223,-31.250,-46.387,-51.270,0.000,0
1601748346.996,-51.758,-28.809,-45.898,-44.922,0.000,0
1601748347.000,-45.410,-23.926,-48.340,-40.039,0.000,0
1601748347.004,-48.828,-25.391,-48.828,-40.039,0.000,0
1601748347.008,-55.664,-28.809,-50.293,-39.551,0.000,0
1601748347.012,-57.129,-30.273,-49.316,-38.574,0.000,0
1601748347.016,-54.199,-30.273,-39.551,-18.555,0.000,0
1601748347.020,-57.129,-29.785,-36.133,-18.555,0.000,0
1601748347.024,-60.547,-36.621,-42.480,-42.969,0.000,0
1601748347.027,-57.617,-37.109,-44.922,-42.480,0.000,0
1601748347.031,-61.523,-27.344,-46.387,-36.621,0.000,0
1601748347.035,-61.035,-28.809,-48.828,-32.715,0.000,0
1601748347.039,-56.641,-31.250,-50.781,-40.039,0.000,0
1601748347.043,-62.012,-28.809,-50.293,-40.527,0.000,0
1601748347.047,-65.430,-34.180,-46.387,-39.062,0.000,0
1601748347.051,-62.988,-33.691,-44.922,-46.875,0.000,0
1601748347.055,-60.547,-29.297,-47.852,-43.457,0.000,0
1601748347.059,-63.965,-33.203,-49.316,-40.039,0.000,0
1601748347.063,-63.477,-29.785,-48.828,-53.711,0.000,0
1601748347.067,-61.035,-27.832,-49.316,-66.406,0.000,0
1601748347.070,-58.105,-26.367,-47.852,-56.152,0.000,0
1601748347.074,-54.688,-26.855,-49.805,-44.922,0.000,0
1601748347.078,-57.617,-29.785,-49.316,-40.527,0.000,0
1601748347.082,-57.617,-31.250,-48.828,-45.410,0.000,0
1601748347.086,-59.570,-28.320,-54.199,-53.223,0.000,0
1601748347.090,-58.105,-30.762,-52.734,-49.805,0.000,0
1601748347.094,-48.828,-34.668,-48.340,-35.156,0.000,0
1601748347.098,-48.340,-35.156,-48.828,-30.273,0.000,0
1601748347.102,-56.152,-36.133,-49.316,-40.039,0.000,0
1601748347.106,-56.641,-33.203,-48.828,-46.387,0.000,0
1601748347.110,-54.199,-32.715,-47.852,-45.898,0.000,0
1601748347.113,-52.734,-34.180,-45.898,-40.527,0.000,0
1601748347.117,-48.340,-34.180,-42.969,-34.180,0.000,0
1601748347.121,-53.711,-34.180,-43.945,-36.621,0.000,0
1601748347.125,-60.059,-33.203,-47.363,-38.086,0.000,0
1601748347.129,-59.082,-34.180,-43.945,-32.715,0.000,0
1601748347.133,-55.176,-34.180,-42.969,-22.949,0.000,0
1601748347.137,-49.316,-33.691,-42.969,-21.484,0.000,0
1601748347.141,-50.293,-34.668,-38.086,-29.297,0.000,0
1601748347.145,-51.270,-33.691,-40.527,-35.645,0.000,0
1601748347.149,-54.199,-32.715,-45.898,-40.039,0.000,0
1601748347.152,-53.223,-31.738,-43.945,-36.621,0.000,0
1601748347.156,-51.758,-30.762,-44.922,-19.531,0.000,0
1601748347.160,-58.105,-35.156,-46.875,-19.531,0.000,0
1601748347.164,-61.035,-35.156,-40.527,-30.273,0.000,0
1601748347.168,-57.617,-20.996,-36.133,-28.320,0.000,0
1601748347.172,-52.246,-17.578,-38.086,-27.344,0.000,0
1601748347.176,-45.410,-21.973,-40.527,-21.484,0.000,0
1601748347.180,-49.805,-22.461,-46.875,-20.020,0.000,0
1601748347.184,-55.176,-20.996,-47.852,-30.762,0.000,0
1601748347.188,-54.688,-22.949,-44.922,-33.203,0.000,0
1601748347.192,-56.641,-22.461,-44.434,-25.879,0.000,0
1601748347.195,-55.664,-24.414,-41.504,-16.602,0.000,0
1601748347.199,-59.570,-34.668,-47.852,-21.973,0.000,0
1601748347.203,-58.594,-33.203,-46.387,-37.598,0.000,0
1601748347.207,-55.176,-28.320,-43.945,-41.504,0.000,0
1601748347.211,-53.223,-28.320,-45.410,-32.227,0.000,0
1601748347.215,-49.316,-30.273,-44.434,-26.855,0.000,0
1601748347.219,-47.852,-30.273,-49.316,-32.227,0.000,0
1601748347.223,-49.316,-23.438,-46.875,-30.762,0.000,0
1601748347.227,-48.828,-22.949,-40.039,-31.250,0.000,0
1601748347.231,-54.199,-28.320,-38.086,-30.273,0.000,0
1601748347.235,-59.570,-25.879,-41.016,-36.621,0.000,0
1601748347.238,-55.664,-18.066,-42.480,-39.551,0.000,0
1601748347.242,-54.688,-17.090,-38.086,-35.645,0.000,0
1601748347.246,-51.270,-20.020,-40.039,-33.691,0.000,0
1601748347.250,-48.340,-22.461,-42.480,-27.344,0.000,0
1601748347.254,-49.805,-22.461,-43.457,-26.855,0.000,0
1601748347.258,-43.945,-19.043,-40.527,-25.391,0.000,0
1601748347.262,-40.527,-22.949,-40.039,-28.809,0.000,0
1601748347.266,-37.109,-23.926,-39.062,-29.785,0.000,0
1601748347.270,-37.598,-19.531,-37.109,-27.832,0.000,0
1601748347.274,-42.480,-20.508,-38.574,-24.902,0.000,0
1601748347.277,-45.898,-23.438,-40.039,-19.531,0.000,0
1601748347.281,-56.152,-22.461,-40.527,-22.461,0.000,0
1601748347.285,-62.012,-22.949,-44.922,-26.367,0.000,0
1601748347.289,-64.453,-27.832,-50.293,-24.902,0.000,0
1601748347.293,-57.617,-29.297,-42.480,-23.926,0.000,0
1601748347.297,-47.852,-27.832,-38.574,-26.367,0.000,0
1601748347.301,-50.293,-28.320,-44.434,-30.273,0.000,0
1601748347.305,-44.922,-29.297,-44.434,-29.297,0.000,0
1601748347.309,-42.480,-25.879,-45.898,-26.855,0.000,0
1601748347.313,-44.434,-26.367,-43.457,-18.555,0.000,0
1601748347.317,-40.039,-25.879,-41.016,-12.695,0.000,0
1601748347.320,-39.551,-22.949,-48.340,-20.996,0.000,0
1601748347.324,-42.969,-24.902,-48.828,-29.785,0.000,0
1601748347.328,-41.504,-24.902,-40.527,-28.320,0.000,0
1601748347.332,-40.039,-22.461,-41.992,-23.438,0.000,0
1601748347.336,-46.387,-25.391,-41.016,-18.555,0.000,0
1601748347.340,-51.270,-28.809,-41.016,-19.531,0.000,0
1601748347.344,-52.734,-29.297,-46.387,-24.902,0.000,0
1601748347.348,-50.293,-29.297,-45.898,-24.902,0.000,0
1601748347.352,-48.828,-26.855,-45.410,-18.066,0.000,0
1601748347.356,-47.852,-20.508,-41.016,-11.230,0.000,0
1601748347.360,-44.922,-24.414,-43.945,-18.066,0.000,0
1601748347.363,-45.898,-27.832,-48.828,-30.273,0.000,0
1601748347.367,-41.016,-16.602,-46.387,-32.715,0.000,0
1601748347.371,-38.086,-17.090,-49.316,-30.762,0.000,0
1601748347.375,-40.039,-24.414,-47.363,-28.320,0.000,0
1601748347.379,-36.621,-26.855,-43.945,-17.090,0.000,0
1601748347.383,-32.715,-24.414,-43.457,-21.484,0.000,0
1601748347.387,-40.527,-23.438,-44.434,-27.832,0.000,0
1601748347.391,-42.480,-24.414,-43.945,-25.879,0.000,0
1601748347.395,-36.133,-27.832,-41.016,-17.090,0.000,0
1601748347.399,-41.016,-35.156,-44.922,-15.625,0.000,0
1601748347.402,-50.781,-34.668,-46.387,-27.344,0.000,0
1601748347.406,-46.875,-28.809,-42.969,-24.902,0.000,0
1601748347.410,-40.039,-25.879,-40.527,-22.461,0.000,0
1601748347.414,-41.504,-28.809,-41.992,-20.996,0.000,0
1601748347.418,-37.598,-23.926,-42.480,-13.672,0.000,0
1601748347.422,-41.992,-24.414,-39.062,-20.508,0.000,0
1601748347.426,-47.363,-30.762,-44.434,-36.133,0.000,0
1601748347.430,-43.457,-33.203,-44.922,-33.203,0.000,0
1601748347.434,-39.062,-27.832,-41.504,-13.672,0.000,0
1601748347.438,-40.039,-20.020,-41.504,-10.742,0.000,0
1601748347.442,-39.551,-18.555,-39.062,-22.949,0.000,0
1601748347.445,-38.086,-21.484,-42.480,-27.832,0.000,0
1601748347.449,-44.922,-24.902,-44.922,-25.391,0.000,0
1601748347.453,-48.828,-22.949,-47.363,-24.902,0.000,0
1601748347.457,-42.480,-23.926,-42.480,-21.973,0.000,0
1601748347.461,-38.574,-23.438,-36.133,-20.996,0.000,0
1601748347.465,-47.363,-20.996,-42.969,-34.180,0.000,2
1601748347.469,-53.711,-22.949,-49.805,-43.457,0.000,0
1601748347.473,-55.664,-30.762,-53.711,-40.039,0.000,0
1601748347.477,-56.152,-30.762,-52.246,-28.809,0.000,0
1601748347.481,-53.223,-23.438,-45.898,-31.738,0.000,0
1601748347.485,-48.340,-22.461,-47.363,-36.621,0.000,0
1601748347.488,-46.875,-28.320,-47.852,-28.809,0.000,0
1601748347.492,-46.875,-31.250,-45.898,-22.949,0.000,0
1601748347.496,-42.480,-31.250,-46.387,-23.926,0.000,0
1601748347.500,-43.457,-27.344,-48.828,-33.203,0.000,0
1601748347.504,-41.504,-21.973,-42.969,-28.809,0.000,0
1601748347.508,-41.504,-21.973,-36.133,-18.555,0.000,0
1601748347.512,-41.992,-20.996,-41.016,-18.555,0.000,0
1601748347.516,-45.898,-26.367,-43.457,-18.555,0.000,0
1601748347.520,-51.270,-30.762,-41.016,-18.066,0.000,0
1601748347.524,-44.434,-25.391,-40.039,-22.461,0.000,0
1601748347.527,-41.992,-23.926,-44.434,-28.809,0.000,0
1601748347.531,-53.711,-33.203,-46.875,-27.344,0.000,0
1601748347.535,-53.711,-34.180,-44.922,-25.391,0.000,0
1601748347.539,-46.387,-25.391,-45.410,-29.297,0.000,0
1601748347.543,-45.410,-26.855,-46.875,-36.621,0.000,0
1601748347.547,-46.387,-27.344,-47.363,-41.504,0.000,0
1601748347.551,-53.711,-28.320,-48.828,-37.598,0.000,0
1601748347.555,-48.340,-28.809,-53.223,-28.320,0.000,0
1601748347.559,-43.457,-23.926,-53.711,-27.832,0.000,0
1601748347.563,-45.898,-23.438,-51.270,-38.574,0.000,0
1601748347.567,-49.805,-24.902,-49.805,-44.922,0.000,0
1601748347.570,-55.664,-28.809,-50.293,-41.504,0.000,0
1601748347.574,-49.805,-30.762,-49.316,-35.156,0.000,0
1601748347.578,-47.363,-31.738,-46.875,-34.668,0.000,0
1601748347.582,-53.223,-32.227,-45.410,-46.387,0.000,0
1601748347.586,-54.688,-30.273,-47.852,-46.387,0.000,0
1601748347.590,-58.594,-33.203,-49.316,-34.180,0.000,0
1601748347.594,-63.477,-38.574,-52.246,-36.133,0.000,0
1601748347.598,-60.547,-39.062,-55.176,-35.156,0.000,0
1601748347.602,-61.035,-34.180,-52.734,-31.738,0.000,0
1601748347.606,-64.453,-32.227,-53.223,-41.016,0.000,0
1601748347.610,-57.129,-33.691,-49.316,-42.480,0.000,0
1601748347.613,-50.293,-31.738,-46.387,-35.156,0.000,0
1601748347.617,-50.293,-34.668,-44.922,-23.438,0.000,0
1601748347.621,-53.711,-34.180,-46.387,-25.391,0.000,0
1601748347.625,-60.059,-32.715,-48.340,-37.598,0.000,0
1601748347.629,-61.035,-30.762,-45.898,-43.945,0.000,0
1601748347.633,-52.734,-22.461,-45.410,-38.574,0.000,0
1601748347.637,-44.922,-21.484,-41.504,-18.555,0.000,0
1601748347.641,-42.969,-24.414,-39.062,-20.020,0.000,0
1601748347.645,-41.992,-26.855,-41.016,-27.344,0.000,0
1601748347.649,-39.551,-25.879,-40.527,-27.344,0.000,0
1601748347.652,-40.039,-21.973,-41.992,-20.996,0.000,0
1601748347.656,-39.062,-24.414,-40.527,-14.160,0.000,0
1601748347.660,-41.992,-33.691,-37.109,-22.461,0.000,0
1601748347.664,-52.246,-36.621,-38.574,-39.551,0.000,0
1601748347.668,-53.711,-32.227,-42.480,-39.062,0.000,0
1601748347.672,-51.270,-30.273,-41.504,-31.250,0.000,0
1601748347.676,-45.410,-31.250,-35.156,-23.926,0.000,0
1601748347.680,-43.945,-27.832,-35.645,-24.414,0.000,0
1601748347.684,-45.410,-23.926,-36.133,-36.621,0.000,0
1601748347.688,-41.016,-23.438,-32.715,-36.621,0.000,0
1601748347.692,-41.016,-24.902,-39.062,-32.227,0.000,0
1601748347.695,-42.969,-27.832,-47.363,-29.297,0.000,0
1601748347.699,-40.527,-25.391,-40.039,-19.531,0.000,0
1601748347.703,-43.945,-23.926,-36.621,-21.973,0.000,0
1601748347.707,-48.340,-25.391,-41.504,-31.738,0.000,0
1601748347.711,-43.945,-26.367,-42.480,-29.297,0.000,0
1601748347.715,-38.086,-29.785,-40.039,-23.438,0.000,0
1601748347.719,-36.621,-31.250,-47.363,-20.020,0.000,0
1601748347.723,-41.504,-27.832,-50.293,-26.855,0.000,0
1601748347.727,-50.293,-27.832,-49.805,-39.062,0.000,0
1601748347.731,-49.316,-25.879,-55.176,-40.039,0.000,0
1601748347.735,-44.434,-25.391,-55.176,-36.621,0.000,0
1601748347.738,-39.551,-27.344,-50.781,-27.344,0.000,0
1601748347.742,-39.062,-27.344,-45.898,-20.996,0.000,0
1601748347.746,-38.574,-21.973,-41.016,-26.855,0.000,0
1601748347.750,-41.992,-25.391,-41.992,-42.969,0.000,0
1601748347.754,-46.387,-28.809,-47.852,-42.969,0.000,0
1601748347.758,-52.246,-30.762,-51.758,-29.297,0.000,0
1601748347.762,-58.105,-32.227,-51.758,-35.156,0.000,0
1601748347.766,-57.129,-30.273,-47.852,-49.316,0.000,0
1601748347.770,-56.641,-31.250,-48.340,-48.340,0.000,0
1601748347.774,-58.105,-30.273,-51.270,-39.062,0.000,0
1601748347.777,-48.828,-29.297,-48.340,-31.738,0.000,0
1601748347.781,-47.852,-26.855,-50.293,-38.086,0.000,0
1601748347.785,-51.270,-27.832,-46.387,-44.434,0.000,0
1601748347.789,-51.758,-26.367,-41.504,-35.156,0.000,0
1601748347.793,-55.664,-28.320,-45.410,-32.715,0.000,0
1601748347.797,-55.664,-34.180,-44.922,-31.738,0.000,0
1601748347.801,-54.199,-33.203,-42.969,-29.785,0.000,0
1601748347.805,-53.223,-34.180,-44.434,-38.574,0.000,0
1601748347.809,-50.293,-37.109,-42.969,-43.945,0.000,0
1601748347.813,-50.781,-42.480,-41.992,-41.016,0.000,0
1601748347.817,-55.664,-45.898,-43.457,-39.062,0.000,0
1601748347.820,-65.430,-44.922,-45.898,-41.504,0.000,0
1601748347.824,-62.988,-40.039,-41.504,-43.457,0.000,0
1601748347.828,-52.734,-42.480,-38.086,-40.527,0.000,0
1601748347.832,-50.293,-37.598,-42.969,-30.273,0.000,0
1601748347.836,-44.434,-31.738,-43.457,-26.367,0.000,0
1601748347.840,-43.457,-39.551,-43.945,-35.645,0.000,0
1601748347.844,-47.852,-40.039,-46.387,-39.062,0.000,0
1601748347.848,-46.875,-33.691,-48.828,-35.645,0.000,0
1601748347.852,-47.363,-37.109,-46.387,-38.086,0.000,0
1601748347.856,-47.363,-39.062,-47.852,-27.832,0.000,0
1601748347.860,-46.875,-37.109,-49.805,-22.461,0.000,0
1601748347.863,-49.316,-33.203,-51.758,-33.691,0.000,0
1601748347.867,-49.805,-30.762,-50.781,-33.203,0.000,0
1601748347.871,-45.898,-39.062,-52.246,-29.297,0.000,0
1601748347.875,-37.109,-43.945,-54.199,-29.785,0.000,0
1601748347.879,-36.133,-38.574,-50.293,-27.832,0.000,0
1601748347.883,-40.039,-32.715,-50.293,-24.414,0.000,0
1601748347.887,-38.574,-31.738,-51.270,-23.438,0.000,0
1601748347.891,-37.598,-32.227,-48.828,-27.832,0.000,0
1601748347.895,-34.668,-28.809,-51.270,-20.996,0.000,0
