timestamps,TP9,AF7,AF8,TP10,Right AUX,Marker0
1602092585.358,-35.156,-26.855,-28.320,-17.090,0.000,0
1602092585.362,-10.742,-34.180,-21.973,-0.488,0.000,0
1602092585.366,15.625,-31.250,-17.578,13.672,0.000,0
1602092585.370,0.488,-16.113,-26.367,2.441,0.000,0
1602092585.373,25.879,-14.160,-29.785,-15.625,0.000,0
1602092585.377,60.059,-20.020,-29.297,-19.043,0.000,0
1602092585.381,46.387,-19.531,-29.297,-4.395,0.000,0
1602092585.385,31.738,-22.949,-22.461,3.418,0.000,0
1602092585.389,49.316,-20.996,-22.461,5.859,0.000,0
1602092585.393,58.594,-17.578,-27.344,-8.301,0.000,0
1602092585.397,44.434,-22.461,-28.809,-11.230,0.000,0
1602092585.401,39.551,-23.438,-33.691,-5.859,0.000,0
1602092585.405,66.406,-20.508,-31.738,-4.395,0.000,0
1602092585.409,80.566,-22.949,-24.902,-3.418,0.000,0
1602092585.413,67.871,-23.926,-22.949,-19.043,0.000,0
1602092585.416,55.664,-29.785,-24.414,-24.414,0.000,0
1602092585.420,37.598,-32.227,-24.414,-3.418,0.000,0
1602092585.424,45.898,-31.250,-22.949,2.930,0.000,0
1602092585.428,50.293,-34.668,-28.320,-7.324,0.000,0
1602092585.432,38.086,-35.156,-32.227,-13.184,0.000,0
1602092585.436,37.109,-33.691,-25.391,-17.578,0.000,0
1602092585.440,30.762,-31.738,-23.438,-5.859,0.000,0
1602092585.444,40.527,-27.344,-24.902,15.137,0.000,0
1602092585.448,66.895,-23.926,-23.926,7.324,0.000,0
1602092585.452,62.012,-23.926,-21.973,-5.371,0.000,0
1602092585.455,37.109,-24.902,-20.508,-6.836,0.000,0
1602092585.459,20.020,-26.855,-20.996,-10.254,0.000,0
1602092585.463,18.555,-25.879,-16.113,-1.953,0.000,0
1602092585.467,33.203,-26.367,-10.742,2.930,0.000,0
1602092585.471,43.457,-24.902,-16.602,-3.418,0.000,0
1602092585.475,39.551,-29.297,-22.949,-13.672,0.000,0
1602092585.479,32.227,-34.180,-19.531,-15.137,0.000,0
1602092585.483,21.484,-30.762,-22.949,-1.465,0.000,0
1602092585.487,25.879,-27.832,-21.973,14.648,0.000,0
1602092585.491,37.598,-26.855,-19.531,14.160,0.000,0
1602092585.495,38.574,-23.926,-21.973,-1.465,0.000,0
1602092585.498,35.156,-21.973,-21.973,-4.883,0.000,0
1602092585.502,34.180,-24.414,-23.438,2.441,0.000,0
1602092585.506,26.367,-23.926,-20.996,3.418,0.000,0
1602092585.510,25.391,-21.973,-16.602,0.000,0.000,0
1602092585.514,34.180,-25.879,-22.949,5.859,0.000,0
1602092585.518,25.391,-25.391,-28.809,8.789,0.000,0
1602092585.522,22.461,-25.879,-30.762,5.859,0.000,0
1602092585.526,32.715,-25.391,-32.227,8.789,0.000,0
1602092585.530,35.156,-24.414,-26.855,5.859,0.000,0
1602092585.534,20.020,-24.902,-22.461,-2.441,0.000,0
1602092585.538,9.277,-21.973,-26.855,-11.719,0.000,0
1602092585.541,21.484,-19.043,-28.320,-0.488,0.000,0
1602092585.545,23.438,-21.973,-25.879,3.418,0.000,0
1602092585.549,23.926,-25.879,-29.297,-10.742,0.000,0
1602092585.553,19.043,-25.879,-30.762,-15.137,0.000,0
1602092585.557,-11.230,-26.855,-26.367,-17.578,0.000,0
1602092585.561,-6.348,-23.926,-27.344,-13.184,0.000,0
1602092585.565,31.250,-18.066,-27.832,-4.395,0.000,0
1602092585.569,47.363,-18.066,-22.461,-5.859,0.000,0
1602092585.573,22.949,-21.484,-27.832,-20.508,0.000,0
1602092585.577,16.113,-26.367,-27.344,-30.762,0.000,0
1602092585.580,22.949,-23.926,-23.926,-22.461,0.000,0
1602092585.584,2.930,-25.879,-23.926,-5.859,0.000,0
1602092585.588,-20.508,-30.273,-21.484,-16.113,0.000,0
1602092585.592,-30.273,-31.250,-27.344,-31.738,0.000,0
1602092585.596,-31.738,-32.715,-28.320,-29.785,0.000,0
1602092585.600,-22.461,-29.297,-26.855,-21.973,0.000,0
1602092585.604,-3.906,-24.902,-30.273,-20.508,0.000,0
1602092585.608,3.418,-24.414,-33.691,-29.297,0.000,0
1602092585.612,-3.418,-27.344,-32.715,-28.320,0.000,0
1602092585.616,-22.461,-29.785,-32.227,-30.762,0.000,0
1602092585.620,-20.996,-28.809,-34.668,-37.598,0.000,0
1602092585.623,-11.230,-32.715,-32.227,-20.996,0.000,0
1602092585.627,-13.672,-32.715,-25.879,-16.113,0.000,0
1602092585.631,-16.113,-32.715,-24.902,-18.555,0.000,0
1602092585.635,-32.715,-33.691,-28.809,-30.273,0.000,0
1602092585.639,-53.711,-32.227,-30.762,-41.016,0.000,0
1602092585.643,-33.691,-36.133,-23.926,-31.250,0.000,0
1602092585.647,-9.277,-31.250,-18.555,-22.949,0.000,0
1602092585.651,-25.391,-26.855,-21.973,-20.996,0.000,0
1602092585.655,-30.762,-28.809,-26.367,-24.902,0.000,0
1602092585.659,-27.832,-27.344,-24.902,-27.344,0.000,0
1602092585.663,-7.324,-29.785,-23.926,-9.766,0.000,0
1602092585.666,14.648,-28.809,-22.949,-0.488,0.000,0
1602092585.670,12.207,-31.250,-23.926,-11.230,0.000,0
1602092585.674,-13.672,-37.598,-26.855,-25.879,0.000,0
1602092585.678,-29.297,-29.785,-25.879,-18.066,0.000,0
1602092585.682,-14.160,-22.949,-24.902,-2.441,0.000,0
1602092585.686,-4.883,-23.438,-24.902,-6.836,0.000,0
1602092585.690,-3.906,-21.484,-22.461,-5.371,0.000,0
1602092585.694,-13.184,-24.414,-21.484,-13.672,0.000,0
1602092585.698,-19.531,-23.438,-25.879,-12.695,0.000,0
1602092585.702,-10.254,-26.855,-27.832,0.000,0.000,0
1602092585.705,-2.441,-31.738,-16.602,7.812,0.000,0
1602092585.709,11.230,-24.902,-11.230,4.883,0.000,0
1602092585.713,20.996,-19.531,-15.137,-1.953,0.000,0
1602092585.717,11.719,-17.090,-14.160,-2.441,0.000,0
1602092585.721,-13.672,-15.137,-17.090,-1.465,0.000,0
1602092585.725,-14.648,-17.578,-17.578,12.695,0.000,0
1602092585.729,-23.926,-17.578,-17.090,0.977,0.000,0
1602092585.733,-39.551,-19.043,-21.973,-14.648,0.000,0
1602092585.737,-30.762,-24.414,-23.926,-13.672,0.000,0
1602092585.741,-35.156,-22.461,-26.855,-17.090,0.000,0
1602092585.745,-28.320,-21.973,-27.832,-11.719,0.000,0
1602092585.748,-31.250,-26.855,-23.926,-16.113,0.000,0
1602092585.752,-49.316,-23.926,-18.555,-30.273,0.000,0
1602092585.756,-53.223,-24.902,-19.531,-23.438,0.000,0
1602092585.760,-39.062,-27.832,-23.926,-17.578,0.000,0
1602092585.764,-18.066,-28.320,-26.367,-20.508,0.000,0
1602092585.768,-42.969,-27.344,-24.414,-18.555,0.000,0
1602092585.772,-55.664,-29.297,-15.137,-17.090,0.000,0
1602092585.776,-44.434,-27.832,-12.695,-23.438,0.000,0
1602092585.780,-48.340,-26.855,-21.484,-21.973,0.000,0
1602092585.784,-45.410,-29.297,-22.461,-26.367,0.000,0
1602092585.788,-31.250,-30.762,-24.414,-25.879,0.000,0
1602092585.791,-35.156,-34.180,-26.367,-25.879,0.000,0
1602092585.795,-52.734,-36.133,-20.996,-25.391,0.000,0
1602092585.799,-34.668,-34.668,-26.367,-20.996,0.000,0
1602092585.803,-18.066,-33.691,-25.879,-25.879,0.000,0
1602092585.807,-32.227,-34.668,-20.996,-25.391,0.000,0
1602092585.811,-27.832,-33.691,-20.996,-21.973,0.000,0
1602092585.815,-22.461,-32.715,-20.996,-27.832,0.000,0
1602092585.819,-26.855,-32.227,-20.020,-18.555,0.000,0
1602092585.823,-31.250,-35.156,-18.555,-11.719,0.000,0
1602092585.827,-29.785,-36.621,-21.973,-18.066,0.000,0
1602092585.830,-20.508,-36.133,-21.484,-22.461,0.000,0
1602092585.834,-7.812,-37.109,-21.973,-23.926,0.000,0
1602092585.838,0.000,-32.227,-20.508,-19.043,0.000,0
1602092585.842,-31.738,-25.391,-18.555,-18.555,0.000,0
1602092585.846,-32.715,-26.855,-23.438,-11.719,0.000,0
1602092585.850,-13.184,-26.367,-23.438,-1.953,0.000,0
1602092585.854,-27.344,-21.484,-22.949,-7.812,0.000,0
1602092585.858,-33.691,-23.438,-18.555,-12.207,0.000,0
1602092585.862,-13.672,-22.949,-15.137,0.488,0.000,0
1602092585.866,-11.230,-23.926,-17.578,7.812,0.000,0
1602092585.870,-17.090,-29.785,-20.508,13.184,0.000,0
1602092585.873,-17.578,-30.762,-19.043,-4.395,0.000,0
1602092585.877,-22.949,-30.273,-23.438,-23.926,0.000,0
1602092585.881,-20.508,-30.273,-22.949,-13.184,0.000,0
1602092585.885,-24.414,-27.832,-25.879,-25.391,0.000,0
1602092585.889,-8.789,-27.344,-26.855,-22.949,0.000,0
1602092585.893,2.441,-26.367,-25.879,-22.461,0.000,0
1602092585.897,-28.809,-26.855,-28.809,-29.785,0.000,0
1602092585.901,-44.434,-31.250,-26.367,-14.160,0.000,0
1602092585.905,-39.551,-33.691,-27.344,-10.742,0.000,0
1602092585.909,-21.484,-35.645,-26.855,-19.043,0.000,0
1602092585.913,-10.742,-30.762,-22.949,-20.996,0.000,0
1602092585.916,-32.715,-24.902,-17.578,-24.902,0.000,0
1602092585.920,-31.738,-29.297,-17.578,-17.578,0.000,0
1602092585.924,-28.320,-33.203,-27.832,-12.207,0.000,0
1602092585.928,-16.113,-35.156,-31.738,-18.066,0.000,0
1602092585.932,0.000,-29.785,-30.762,-24.414,0.000,0
1602092585.936,-39.551,-26.367,-29.785,-31.250,0.000,0
1602092585.940,-54.688,-31.738,-29.297,-32.715,0.000,0
1602092585.944,-33.203,-27.832,-25.879,-16.602,0.000,0
1602092585.948,-5.371,-25.391,-21.973,-15.137,0.000,0
1602092585.952,-0.977,-30.762,-20.996,-30.273,0.000,0
1602092585.955,-40.039,-24.902,-23.926,-24.902,0.000,0
1602092585.959,-41.016,-24.902,-25.879,-18.555,0.000,0
1602092585.963,-8.301,-28.320,-28.320,-21.484,0.000,0
1602092585.967,10.254,-26.367,-31.250,-27.344,0.000,0
1602092585.971,29.785,-25.391,-24.414,-24.414,0.000,0
1602092585.975,23.438,-23.438,-22.461,-23.438,0.000,0
1602092585.979,13.184,-20.996,-25.391,-24.902,0.000,0
1602092585.983,30.273,-20.996,-21.973,-11.230,0.000,0
1602092585.987,43.457,-20.508,-20.996,-5.859,0.000,0
1602092585.991,29.785,-20.996,-22.949,-20.996,0.000,0
1602092585.995,11.230,-23.438,-22.949,-26.367,0.000,0
1602092585.998,14.648,-23.926,-20.020,-22.949,0.000,0
1602092586.002,17.578,-20.020,-17.090,-9.277,0.000,0
1602092586.006,26.367,-20.508,-19.043,-6.836,0.000,0
1602092586.010,22.949,-27.344,-21.973,-17.578,0.000,0
1602092586.014,7.324,-29.785,-18.555,-23.926,0.000,0
1602092586.018,0.977,-29.297,-19.043,-30.762,0.000,0
1602092586.022,5.859,-26.855,-20.508,-23.926,0.000,0
1602092586.026,14.160,-26.855,-18.555,-22.461,0.000,0
1602092586.030,17.090,-26.855,-14.648,-20.996,0.000,0
1602092586.034,-4.883,-23.926,-12.207,-20.996,0.000,0
1602092586.038,-22.461,-26.367,-15.137,-26.855,0.000,0
1602092586.041,-16.602,-29.785,-13.672,-12.207,0.000,0
1602092586.045,-9.766,-32.715,-14.648,-10.742,0.000,0
1602092586.049,0.488,-31.738,-18.066,-25.879,0.000,0
1602092586.053,0.488,-25.391,-15.137,-24.414,0.000,0
1602092586.057,0.977,-22.461,-18.555,-20.508,0.000,0
1602092586.061,7.812,-24.414,-24.902,-23.926,0.000,0
1602092586.065,11.719,-26.367,-23.438,-26.367,0.000,0
1602092586.069,27.832,-26.367,-20.996,-20.996,0.000,0
1602092586.073,28.809,-28.809,-21.484,-38.574,0.000,0
1602092586.077,6.836,-29.785,-26.367,-41.016,0.000,0
1602092586.080,-7.324,-23.438,-24.414,-23.926,0.000,0
1602092586.084,2.930,-21.484,-24.414,-22.461,0.000,0
1602092586.088,20.020,-25.391,-30.273,-9.277,0.000,0
1602092586.092,12.207,-33.203,-32.715,-16.602,0.000,0
1602092586.096,3.906,-30.273,-29.297,-29.297,0.000,0
1602092586.100,2.441,-22.949,-22.461,-19.043,0.000,0
1602092586.104,1.953,-20.508,-23.926,-19.531,0.000,0
1602092586.108,2.930,-18.066,-23.926,-13.672,0.000,1
1602092586.112,-11.719,-16.602,-23.926,-15.137,0.000,0
1602092586.116,-22.461,-14.648,-25.391,-16.602,0.000,0
1602092586.120,-9.766,-18.066,-20.996,-11.719,0.000,0
1602092586.123,-14.160,-21.484,-20.996,-2.441,0.000,0
1602092586.127,-24.902,-20.020,-23.438,-7.812,0.000,0
1602092586.131,-20.508,-20.020,-22.461,-18.066,0.000,0
1602092586.135,-20.020,-23.926,-24.414,-13.672,0.000,0
1602092586.139,-30.273,-29.785,-25.391,-7.812,0.000,0
1602092586.143,-33.203,-32.227,-22.949,3.418,0.000,0
1602092586.147,-22.949,-32.227,-24.414,-8.301,0.000,0
1602092586.151,-27.344,-31.738,-26.367,-11.230,0.000,0
1602092586.155,-16.113,-26.855,-24.902,-0.977,0.000,0
1602092586.159,-8.789,-28.809,-29.785,-13.672,0.000,0
1602092586.163,-31.738,-33.691,-33.203,-18.066,0.000,0
1602092586.166,-34.668,-29.297,-28.320,-6.348,0.000,0
1602092586.170,-26.855,-24.414,-20.508,-2.930,0.000,0
1602092586.174,-31.250,-30.273,-15.137,-11.719,0.000,0
1602092586.178,-45.410,-34.668,-17.578,-21.973,0.000,0
1602092586.182,-25.879,-29.297,-23.926,-13.184,0.000,0
1602092586.186,-12.695,-30.762,-22.461,-14.648,0.000,0
1602092586.190,-22.949,-31.250,-17.578,-25.391,0.000,0
1602092586.194,-20.020,-27.832,-15.137,-18.066,0.000,0
1602092586.198,-28.320,-25.879,-10.742,-15.625,0.000,0
1602092586.202,-35.156,-28.320,-11.719,-16.113,0.000,0
1602092586.205,-31.738,-30.273,-18.066,-19.043,0.000,0
1602092586.209,-30.273,-27.832,-18.066,-27.832,0.000,0
1602092586.213,-26.855,-22.949,-20.996,-23.438,0.000,0
1602092586.217,-31.250,-22.461,-20.996,-24.414,0.000,0
1602092586.221,-37.109,-29.297,-20.996,-23.926,0.000,0
1602092586.225,-35.645,-29.785,-20.996,-22.949,0.000,0
1602092586.229,-28.809,-30.273,-17.090,-31.738,0.000,0
1602092586.233,-17.578,-30.762,-17.578,-29.785,0.000,0
1602092586.237,-31.738,-25.879,-18.555,-23.926,0.000,0
1602092586.241,-41.504,-20.996,-20.508,-9.766,0.000,0
1602092586.245,-22.949,-22.949,-22.949,-10.742,0.000,0
1602092586.248,-13.672,-24.902,-21.484,-26.367,0.000,0
1602092586.252,-15.137,-24.414,-23.926,-27.832,0.000,0
1602092586.256,-10.254,-23.926,-23.438,-25.391,0.000,0
1602092586.260,-23.926,-25.879,-20.508,-23.926,0.000,0
1602092586.264,-40.527,-25.879,-20.020,-25.391,0.000,0
1602092586.268,-29.297,-23.926,-18.066,-28.320,0.000,0
1602092586.272,-6.836,-25.391,-17.578,-30.762,0.000,0
1602092586.276,-12.695,-26.855,-24.414,-41.992,0.000,0
1602092586.280,-42.969,-29.297,-30.762,-36.621,0.000,0
1602092586.284,-39.551,-27.832,-27.344,-21.973,0.000,0
1602092586.288,-31.250,-24.902,-29.297,-21.484,0.000,0
1602092586.291,-21.484,-25.391,-36.133,-29.297,0.000,0
1602092586.295,-37.598,-24.902,-31.250,-48.340,0.000,0
1602092586.299,-32.227,-22.461,-27.344,-46.387,0.000,0
1602092586.303,-8.789,-20.996,-27.344,-29.297,0.000,0
1602092586.307,-30.273,-27.344,-28.809,-30.273,0.000,0
1602092586.311,-31.250,-30.762,-31.250,-40.039,0.000,0
1602092586.315,-36.133,-33.203,-31.738,-47.852,0.000,0
1602092586.319,-43.457,-34.668,-26.367,-38.086,0.000,0
1602092586.323,-20.020,-34.180,-28.320,-21.973,0.000,0
1602092586.327,-6.348,-35.645,-28.320,-23.926,0.000,0
1602092586.330,-8.301,-31.738,-25.879,-34.668,0.000,0
1602092586.334,-29.297,-29.297,-31.250,-37.109,0.000,0
1602092586.338,-44.434,-28.809,-29.785,-30.762,0.000,0
1602092586.342,-40.039,-27.344,-29.297,-26.367,0.000,0
1602092586.346,-7.324,-19.531,-30.273,-21.973,0.000,0
1602092586.350,-1.953,-17.578,-28.320,-19.531,0.000,0
1602092586.354,-22.461,-24.414,-27.344,-30.273,0.000,0
1602092586.358,-20.996,-23.926,-25.391,-31.250,0.000,0
1602092586.362,-19.531,-21.484,-29.785,-21.484,0.000,0
1602092586.366,-17.090,-24.902,-31.738,-27.832,0.000,0
1602092586.370,-34.668,-29.297,-30.273,-27.832,0.000,0
1602092586.373,-40.039,-30.762,-29.297,-19.043,0.000,0
1602092586.377,-35.645,-30.273,-27.832,-40.039,0.000,0
1602092586.381,-39.062,-29.297,-28.809,-47.363,0.000,0
1602092586.385,-23.438,-23.926,-26.367,-34.180,0.000,0
1602092586.389,-3.906,-20.996,-23.926,-32.227,0.000,0
1602092586.393,-15.137,-18.555,-26.855,-30.273,0.000,0
1602092586.397,-21.973,-19.043,-28.320,-28.809,0.000,0
1602092586.401,-21.484,-26.367,-31.250,-32.227,0.000,0
1602092586.405,-26.855,-24.414,-29.785,-25.879,0.000,0
1602092586.409,-31.250,-22.461,-27.832,-26.367,0.000,0
1602092586.413,-30.762,-24.414,-28.320,-34.668,0.000,0
1602092586.416,-16.602,-20.508,-25.879,-28.320,0.000,0
1602092586.420,-15.137,-19.043,-28.809,-33.691,0.000,0
1602092586.424,-22.461,-27.832,-29.785,-43.945,0.000,0
1602092586.428,-21.484,-30.273,-29.785,-40.039,0.000,0
1602092586.432,-10.254,-25.879,-29.297,-35.645,0.000,0
1602092586.436,-10.742,-22.949,-27.344,-38.086,0.000,0
1602092586.440,-25.391,-22.461,-29.785,-39.062,0.000,0
1602092586.444,-20.508,-26.367,-24.902,-34.668,0.000,0
1602092586.448,-18.066,-28.809,-25.391,-29.297,0.000,0
1602092586.452,-34.668,-27.344,-26.367,-24.902,0.000,0
1602092586.455,-35.645,-28.320,-21.973,-32.227,0.000,0
1602092586.459,-34.668,-28.320,-22.461,-32.715,0.000,0
1602092586.463,-34.180,-24.902,-25.391,-18.066,0.000,0
1602092586.467,-24.414,-23.926,-22.949,-20.020,0.000,0
1602092586.471,-6.348,-24.902,-18.066,-24.902,0.000,0
1602092586.475,-6.836,-26.855,-22.949,-18.066,0.000,0
1602092586.479,-26.367,-29.785,-26.367,-15.137,0.000,0
1602092586.483,-17.090,-31.250,-23.926,-12.695,0.000,0
1602092586.487,13.184,-26.855,-24.902,-11.230,0.000,0
1602092586.491,5.859,-23.438,-24.414,-15.625,0.000,0
1602092586.495,-52.734,-23.438,-23.926,-28.809,0.000,0
1602092586.498,-76.660,-21.973,-22.949,-24.414,0.000,0
1602092586.502,-63.477,-23.438,-20.508,-14.648,0.000,0
1602092586.506,-37.109,-22.949,-19.043,-17.578,0.000,0
1602092586.510,-16.602,-23.926,-22.461,-28.320,0.000,0
1602092586.514,-34.180,-24.414,-21.973,-30.273,0.000,0
1602092586.518,-41.016,-21.973,-15.625,-29.297,0.000,0
1602092586.522,-31.738,-20.996,-17.578,-24.902,0.000,0
1602092586.526,-32.227,-21.973,-19.043,-27.832,0.000,0
1602092586.530,-32.715,-21.484,-20.020,-33.691,0.000,0
1602092586.534,-29.297,-19.531,-18.066,-30.762,0.000,0
1602092586.538,-34.180,-20.996,-18.066,-36.133,0.000,0
1602092586.541,-25.879,-25.391,-21.484,-41.016,0.000,0
1602092586.545,0.000,-23.926,-20.508,-35.156,0.000,0
1602092586.549,-7.812,-25.391,-20.508,-33.691,0.000,0
1602092586.553,-33.691,-26.855,-19.531,-43.945,0.000,0
1602092586.557,-39.551,-25.391,-17.578,-46.875,0.000,0
1602092586.561,-30.273,-25.391,-14.160,-29.785,0.000,0
1602092586.565,-13.672,-27.344,-17.090,-20.996,0.000,0
1602092586.569,-18.555,-27.832,-20.020,-30.273,0.000,0
1602092586.573,-23.926,-28.320,-22.461,-35.645,0.000,0
1602092586.577,-36.133,-27.344,-27.832,-32.227,0.000,0
1602092586.580,-55.176,-25.391,-27.344,-35.645,0.000,0
1602092586.584,-60.547,-24.414,-30.273,-42.480,0.000,0
1602092586.588,-48.828,-22.461,-34.668,-32.227,0.000,0
1602092586.592,-38.574,-23.438,-32.715,-32.715,0.000,0
1602092586.596,-39.551,-25.879,-28.320,-38.574,0.000,0
1602092586.600,-28.809,-24.414,-28.809,-38.574,0.000,0
1602092586.604,-13.672,-23.926,-30.273,-27.344,0.000,0
1602092586.608,-14.160,-22.461,-30.273,-23.926,0.000,0
1602092586.612,-7.812,-24.414,-26.855,-25.391,0.000,0
1602092586.616,-6.836,-28.320,-27.832,-31.250,0.000,0
1602092586.620,-27.344,-30.762,-32.227,-35.645,0.000,0
1602092586.623,-28.809,-33.203,-26.855,-29.785,0.000,0
1602092586.627,-11.230,-30.762,-23.926,-29.297,0.000,0
1602092586.631,-12.695,-30.762,-21.973,-22.461,0.000,0
1602092586.635,-14.160,-26.855,-19.043,-17.090,0.000,0
1602092586.639,-13.672,-20.996,-19.043,-14.648,0.000,0
1602092586.643,-14.160,-20.020,-16.602,0.000,0.000,0
1602092586.647,-20.020,-23.926,-18.066,-21.484,0.000,0
1602092586.651,-10.742,-29.785,-20.996,-29.297,0.000,0
1602092586.655,-15.137,-32.227,-19.043,-23.926,0.000,0
1602092586.659,-36.621,-30.273,-18.066,-30.273,0.000,0
1602092586.663,-34.668,-30.273,-22.949,-17.578,0.000,0
1602092586.666,-31.738,-31.738,-23.438,-11.719,0.000,0
1602092586.670,-23.926,-27.344,-22.949,-19.531,0.000,0
1602092586.674,-12.695,-25.391,-21.973,-22.949,0.000,0
1602092586.678,-15.625,-28.320,-22.949,-30.273,0.000,0
1602092586.682,-22.949,-28.809,-24.902,-16.113,0.000,0
1602092586.686,-6.348,-28.320,-22.461,-14.160,0.000,0
1602092586.690,1.465,-28.809,-23.438,-23.926,0.000,0
1602092586.694,-22.461,-26.855,-20.508,-25.879,0.000,0
1602092586.698,-30.762,-23.926,-16.602,-26.367,0.000,0
1602092586.702,-32.227,-27.344,-19.531,-20.020,0.000,0
1602092586.705,-21.973,-23.926,-23.438,-15.137,0.000,0
1602092586.709,-9.766,-21.484,-20.020,-19.531,0.000,0
1602092586.713,-13.184,-24.414,-15.625,-21.484,0.000,0
1602092586.717,-10.254,-21.973,-16.602,-20.996,0.000,0
1602092586.721,-11.230,-20.508,-17.578,-20.508,0.000,0
1602092586.725,-9.766,-21.973,-15.625,-16.113,0.000,0
1602092586.729,5.371,-20.996,-17.578,-13.672,0.000,0
1602092586.733,-10.742,-18.555,-12.207,-17.578,0.000,0
1602092586.737,-29.297,-24.902,-10.254,-19.531,0.000,0
1602092586.741,-19.043,-26.855,-15.137,-14.648,0.000,0
1602092586.745,-2.930,-28.320,-16.113,-9.766,0.000,0
1602092586.748,-13.184,-30.762,-17.578,-12.207,0.000,0
1602092586.752,-26.855,-30.762,-19.531,-19.043,0.000,0
1602092586.756,-18.555,-29.785,-20.508,-22.461,0.000,0
1602092586.760,-21.973,-28.809,-20.508,-19.531,0.000,0
1602092586.764,-25.391,-27.344,-18.066,-14.648,0.000,0
1602092586.768,-12.695,-27.344,-20.996,-19.531,0.000,0
1602092586.772,-13.184,-33.691,-31.250,-22.461,0.000,0
1602092586.776,-19.531,-37.109,-31.738,-27.344,0.000,0
1602092586.780,-23.438,-32.227,-30.273,-29.785,0.000,0
1602092586.784,-30.273,-33.691,-35.156,-23.438,0.000,0
1602092586.788,-31.738,-30.762,-34.180,-19.531,0.000,0
1602092586.791,-33.203,-28.320,-30.762,-26.367,0.000,0
1602092586.795,-36.621,-33.691,-24.902,-31.738,0.000,0
1602092586.799,-34.180,-30.762,-25.879,-24.902,0.000,0
1602092586.803,-26.367,-27.344,-29.785,-17.090,0.000,0
1602092586.807,-17.578,-27.344,-29.785,-22.461,0.000,0
1602092586.811,-9.277,-28.320,-26.367,-25.391,0.000,0
1602092586.815,-26.855,-27.344,-22.949,-17.578,0.000,0
1602092586.819,-39.062,-21.973,-20.996,-9.766,0.000,0
1602092586.823,-26.367,-20.020,-20.996,-20.020,0.000,0
1602092586.827,-23.926,-29.297,-27.344,-31.250,0.000,0
1602092586.830,-22.949,-32.227,-25.879,-35.156,0.000,0
1602092586.834,-32.715,-28.809,-22.461,-41.992,0.000,0
1602092586.838,-35.645,-28.320,-26.855,-43.945,0.000,0
1602092586.842,-33.203,-26.367,-23.926,-31.250,0.000,0
1602092586.846,-27.344,-23.926,-22.949,-22.949,0.000,0
1602092586.850,-18.066,-28.320,-28.809,-22.949,0.000,0
1602092586.854,-11.719,-30.273,-35.645,-23.438,0.000,0
1602092586.858,-15.625,-30.762,-33.203,-27.832,0.000,0
1602092586.862,-24.414,-32.227,-28.809,-29.297,0.000,0
1602092586.866,-9.277,-31.738,-27.832,-21.484,0.000,0
1602092586.870,-6.836,-31.250,-21.973,-23.926,0.000,0
1602092586.873,-24.414,-30.762,-19.531,-33.203,0.000,0
1602092586.877,-39.062,-30.762,-24.414,-29.785,0.000,0
1602092586.881,-40.527,-27.344,-25.879,-22.949,0.000,0
1602092586.885,-29.785,-25.391,-25.391,-24.414,0.000,0
1602092586.889,-17.090,-28.320,-27.832,-37.109,0.000,0
1602092586.893,-10.742,-27.832,-27.344,-40.039,0.000,0
1602092586.897,-23.438,-21.973,-20.508,-39.062,0.000,0
1602092586.901,-39.062,-25.391,-20.996,-39.551,0.000,0
1602092586.905,-25.879,-25.391,-24.414,-26.855,0.000,0
1602092586.909,-13.184,-20.508,-22.949,-21.973,0.000,0
1602092586.913,-11.719,-21.973,-20.020,-28.320,0.000,0
1602092586.916,-13.184,-24.414,-19.531,-29.785,0.000,0
1602092586.920,-24.414,-26.855,-19.531,-25.879,0.000,0
1602092586.924,-28.809,-29.297,-18.555,-20.508,0.000,0
1602092586.928,-20.508,-32.227,-16.113,-26.367,0.000,0
1602092586.932,-14.648,-27.832,-13.184,-26.855,0.000,0
1602092586.936,-26.367,-26.367,-11.230,-32.227,0.000,0
1602092586.940,-19.043,-26.855,-11.719,-29.785,0.000,0
1602092586.944,-15.137,-22.949,-14.160,-17.578,0.000,0
1602092586.948,-28.320,-26.367,-15.137,-27.832,0.000,0
1602092586.952,-30.762,-30.273,-12.207,-31.250,0.000,0
1602092586.955,-49.316,-27.344,-8.789,-35.645,0.000,0
1602092586.959,-59.082,-29.297,-13.672,-40.527,0.000,0
1602092586.963,-42.480,-31.250,-20.508,-25.879,0.000,0
1602092586.967,-34.668,-26.855,-19.043,-20.996,0.000,0
1602092586.971,-34.668,-21.973,-18.555,-24.902,0.000,0
1602092586.975,-35.156,-22.949,-19.531,-30.762,0.000,0
1602092586.979,-41.992,-26.367,-18.066,-36.621,0.000,0
1602092586.983,-33.691,-25.391,-18.066,-25.391,0.000,0
1602092586.987,-15.137,-21.484,-18.555,-23.926,0.000,0
1602092586.991,-14.648,-23.438,-21.973,-33.203,0.000,0
1602092586.995,-30.273,-24.902,-23.926,-32.715,0.000,0
1602092586.998,-52.246,-24.902,-26.367,-18.066,0.000,0
1602092587.002,-43.945,-23.438,-26.367,-18.066,0.000,0
1602092587.006,-31.738,-27.832,-23.438,-25.879,0.000,0
1602092587.010,-25.879,-29.785,-23.438,-30.273,0.000,0
1602092587.014,-12.695,-20.996,-24.902,-30.762,0.000,0
1602092587.018,-20.020,-21.973,-24.414,-22.949,0.000,0
1602092587.022,-23.926,-30.762,-19.043,-23.926,0.000,0
1602092587.026,-17.578,-29.297,-19.531,-27.832,0.000,0
1602092587.030,-21.973,-27.344,-22.949,-23.926,0.000,0
1602092587.034,-25.391,-31.250,-22.461,-27.832,0.000,0
1602092587.038,-28.320,-30.273,-17.578,-29.785,0.000,0
1602092587.041,-30.273,-32.227,-16.602,-24.902,0.000,0
1602092587.045,-22.461,-36.133,-20.508,-24.414,0.000,0
1602092587.049,-14.160,-36.133,-23.926,-26.367,0.000,0
1602092587.053,-17.090,-31.738,-21.484,-34.180,0.000,0
1602092587.057,-18.555,-31.250,-21.973,-43.457,0.000,0
1602092587.061,-26.855,-25.879,-24.414,-36.621,0.000,0
1602092587.065,-29.297,-27.832,-20.996,-27.832,0.000,0
1602092587.069,-20.508,-31.738,-21.484,-28.809,0.000,0
1602092587.073,-30.273,-32.715,-22.461,-27.344,0.000,0
1602092587.077,-36.621,-34.668,-20.508,-32.227,0.000,0
1602092587.080,-26.367,-31.738,-16.602,-33.203,0.000,0
1602092587.084,-3.418,-31.250,-15.137,-19.531,0.000,0
1602092587.088,-0.977,-29.297,-22.461,-18.555,0.000,0
1602092587.092,-13.672,-28.320,-25.879,-29.785,0.000,0
1602092587.096,-6.836,-26.367,-21.973,-41.016,0.000,0
1602092587.100,-8.301,-26.855,-20.508,-35.156,0.000,0
1602092587.104,-26.367,-33.203,-19.531,-32.227,0.000,0
1602092587.108,-13.184,-30.273,-18.555,-31.250,0.000,0
1602092587.112,3.418,-26.855,-17.578,-27.344,0.000,0
1602092587.116,-27.344,-27.832,-23.438,-37.598,0.000,0
1602092587.120,-33.691,-23.926,-30.762,-36.133,0.000,0
1602092587.123,-13.184,-22.461,-32.227,-27.344,0.000,0
1602092587.127,1.465,-21.484,-30.762,-26.367,0.000,0
1602092587.131,14.160,-23.438,-28.320,-27.832,0.000,0
1602092587.135,13.184,-20.996,-26.367,-28.320,0.000,0
1602092587.139,-9.277,-19.043,-26.855,-30.762,0.000,0
1602092587.143,-13.184,-19.531,-33.203,-15.137,0.000,0
1602092587.147,-3.906,-22.949,-32.715,-11.230,0.000,0
1602092587.151,-34.668,-25.391,-26.855,-34.180,0.000,0
1602092587.155,-67.383,-28.320,-20.508,-52.246,0.000,0
1602092587.159,-56.641,-29.297,-21.484,-49.316,0.000,0
1602092587.163,-48.340,-27.832,-20.996,-42.480,0.000,0
1602092587.166,-58.594,-29.785,-20.020,-41.504,0.000,0
1602092587.170,-53.711,-29.785,-26.367,-40.527,0.000,0
1602092587.174,-72.266,-32.227,-27.344,-57.129,0.000,0
1602092587.178,-90.820,-35.156,-22.949,-54.199,0.000,0
1602092587.182,-78.125,-32.227,-24.902,-36.621,0.000,0
1602092587.186,-67.383,-28.809,-21.484,-31.250,0.000,0
1602092587.190,-66.406,-29.297,-21.484,-32.227,0.000,0
1602092587.194,-61.035,-26.367,-21.973,-36.133,0.000,0
1602092587.198,-77.637,-28.809,-21.484,-41.992,0.000,0
1602092587.202,-83.984,-27.832,-23.926,-43.945,0.000,0
1602092587.205,-47.852,-27.832,-23.926,-32.227,0.000,0
1602092587.209,-26.855,-27.344,-23.926,-29.785,0.000,0
1602092587.213,-32.715,-27.832,-19.531,-35.645,0.000,0
1602092587.217,-60.547,-35.645,-19.043,-46.387,0.000,0
1602092587.221,-65.430,-31.738,-24.414,-39.551,0.000,0
1602092587.225,-56.152,-29.297,-23.926,-27.832,0.000,0
1602092587.229,-51.758,-28.809,-19.531,-31.250,0.000,0
1602092587.233,-54.199,-25.391,-19.043,-24.414,0.000,0
1602092587.237,-60.059,-23.438,-23.926,-23.926,0.000,0
1602092587.241,-36.133,-25.391,-22.461,-25.391,0.000,0
1602092587.245,-16.113,-24.902,-21.973,-21.973,0.000,0
1602092587.248,-29.785,-25.391,-21.973,-19.531,0.000,0
1602092587.252,-41.504,-31.250,-20.996,-27.832,0.000,0
1602092587.256,-35.645,-28.320,-26.367,-36.133,0.000,0
1602092587.260,-30.762,-25.391,-27.832,-27.832,0.000,0
1602092587.264,-35.645,-23.926,-23.438,-7.812,0.000,0
1602092587.268,-33.691,-20.996,-24.902,-15.137,0.000,0
1602092587.272,-29.785,-25.391,-30.273,-24.902,0.000,0
1602092587.276,-25.879,-24.902,-27.344,-18.066,0.000,0
1602092587.280,-13.184,-20.020,-20.996,-19.043,0.000,0
1602092587.284,-7.812,-20.020,-20.020,-16.602,0.000,0
1602092587.288,0.488,-20.996,-19.531,-6.836,0.000,0
1602092587.291,6.348,-22.949,-15.625,-11.719,0.000,0
1602092587.295,-5.371,-16.602,-14.648,-25.879,0.000,0
1602092587.299,-22.461,-16.602,-16.602,-26.855,0.000,0
1602092587.303,-21.484,-25.879,-19.531,-18.555,0.000,0
1602092587.307,-22.949,-28.320,-21.484,-24.414,0.000,0
1602092587.311,-15.625,-20.020,-21.484,-31.738,0.000,0
1602092587.315,-6.348,-16.113,-19.043,-41.504,0.000,1
1602092587.319,-17.578,-22.949,-20.020,-39.062,0.000,0
1602092587.323,-13.184,-25.391,-27.344,-40.527,0.000,0
1602092587.327,-13.184,-26.367,-24.414,-39.551,0.000,0
1602092587.330,-31.250,-27.344,-20.508,-34.180,0.000,0
1602092587.334,-23.926,-26.855,-25.391,-35.156,0.000,0
1602092587.338,-23.438,-27.344,-24.414,-41.992,0.000,0
1602092587.342,-36.133,-25.879,-23.438,-38.086,0.000,0
1602092587.346,-28.809,-30.273,-24.902,-29.785,0.000,0
1602092587.350,-8.789,-31.250,-29.297,-34.668,0.000,0
1602092587.354,-6.348,-29.785,-32.227,-47.363,0.000,0
1602092587.358,-23.438,-29.785,-30.273,-47.852,0.000,0
1602092587.362,-33.203,-27.344,-30.762,-37.109,0.000,0
1602092587.366,-18.066,-27.832,-28.320,-34.180,0.000,0
1602092587.370,6.348,-33.203,-23.438,-34.180,0.000,0
1602092587.373,-1.465,-31.250,-25.879,-33.203,0.000,0
1602092587.377,-23.438,-27.832,-31.250,-34.180,0.000,0
1602092587.381,-14.648,-37.598,-33.691,-41.016,0.000,0
1602092587.385,-10.742,-36.133,-34.668,-42.969,0.000,0
1602092587.389,-20.508,-32.227,-32.715,-32.227,0.000,0
1602092587.393,-15.625,-34.668,-30.762,-33.203,0.000,0
1602092587.397,-14.648,-30.273,-32.227,-49.316,0.000,0
1602092587.401,-15.137,-30.762,-31.738,-46.875,0.000,0
1602092587.405,-20.508,-33.691,-29.785,-32.715,0.000,0
1602092587.409,-18.066,-30.762,-31.250,-27.832,0.000,0
1602092587.413,-7.324,-29.297,-31.250,-22.461,0.000,0
1602092587.416,-0.488,-21.484,-26.367,-20.996,0.000,0
1602092587.420,-2.930,-22.461,-25.879,-21.973,0.000,0
1602092587.424,-3.906,-23.438,-29.785,-20.020,0.000,0
1602092587.428,-0.977,-21.973,-31.250,-23.438,0.000,0
1602092587.432,-2.930,-24.902,-25.879,-34.180,0.000,0
1602092587.436,-10.254,-27.344,-24.414,-35.156,0.000,0
1602092587.440,-10.742,-29.785,-25.879,-41.992,0.000,0
1602092587.444,-14.648,-32.715,-22.461,-34.668,0.000,0
1602092587.448,-9.277,-32.715,-21.484,-28.809,0.000,0
1602092587.452,-14.160,-30.762,-19.531,-38.086,0.000,0
1602092587.455,-38.574,-29.785,-22.461,-41.016,0.000,0
1602092587.459,-33.691,-33.691,-25.391,-43.457,0.000,0
1602092587.463,-15.625,-27.344,-18.555,-40.039,0.000,0
1602092587.467,-18.555,-25.391,-19.531,-39.551,0.000,0
1602092587.471,-20.508,-30.762,-24.902,-42.969,0.000,0
1602092587.475,-20.020,-28.320,-25.391,-47.363,0.000,0
1602092587.479,-28.809,-27.344,-24.902,-41.016,0.000,0
1602092587.483,-30.273,-29.297,-22.949,-26.367,0.000,0
1602092587.487,-13.184,-28.320,-23.438,-23.926,0.000,0
1602092587.491,-6.836,-28.320,-24.902,-37.598,0.000,0
1602092587.495,-6.836,-23.926,-23.926,-47.852,0.000,0
1602092587.498,-19.043,-22.949,-22.461,-53.223,0.000,0
1602092587.502,-32.227,-23.438,-15.625,-43.945,0.000,0
1602092587.506,-22.949,-20.508,-9.277,-37.598,0.000,0
1602092587.510,-9.277,-20.508,-9.766,-38.086,0.000,0
1602092587.514,-13.184,-19.531,-10.254,-38.574,0.000,0
1602092587.518,-4.395,-22.461,-14.160,-44.922,0.000,0
1602092587.522,-8.789,-23.438,-17.578,-41.992,0.000,0
1602092587.526,-12.207,-18.066,-17.578,-34.180,0.000,0
1602092587.530,5.859,-13.184,-17.090,-22.461,0.000,0
1602092587.534,-17.578,-19.531,-17.578,-35.156,0.000,0
1602092587.538,-35.645,-23.926,-19.043,-46.875,0.000,0
1602092587.541,-26.855,-21.973,-20.020,-35.645,0.000,0
1602092587.545,-21.973,-24.902,-22.949,-32.227,0.000,0
1602092587.549,-15.137,-28.320,-24.902,-33.691,0.000,0
1602092587.553,-18.555,-27.344,-24.902,-40.039,0.000,0
1602092587.557,-29.785,-21.973,-23.438,-43.945,0.000,0
1602092587.561,-29.785,-25.879,-23.438,-35.156,0.000,0
1602092587.565,-11.230,-25.391,-27.344,-34.180,0.000,0
1602092587.569,3.418,-22.461,-26.367,-29.297,0.000,0
1602092587.573,-17.578,-26.367,-23.438,-33.203,0.000,0
1602092587.577,-32.227,-29.785,-27.832,-45.410,0.000,0
1602092587.580,-31.250,-35.156,-27.832,-36.133,0.000,0
1602092587.584,-37.598,-34.668,-22.949,-26.367,0.000,0
1602092587.588,-39.551,-38.574,-24.414,-30.762,0.000,0
1602092587.592,-34.180,-44.434,-21.973,-24.414,0.000,0
1602092587.596,-23.438,-34.180,-16.113,-27.344,0.000,0
1602092587.600,-29.785,-24.414,-24.414,-51.270,0.000,0
1602092587.604,-34.180,-20.020,-31.250,-49.316,0.000,0
1602092587.608,-12.207,-23.438,-31.250,-34.180,0.000,0
1602092587.612,-10.254,-31.250,-28.809,-45.898,0.000,0
1602092587.616,-30.762,-30.273,-20.508,-54.199,0.000,0
1602092587.620,-49.316,-30.273,-20.508,-46.875,0.000,0
1602092587.623,-44.922,-27.344,-24.902,-40.527,0.000,0
1602092587.627,-29.297,-18.066,-26.367,-36.621,0.000,0
1602092587.631,-36.133,-19.531,-30.762,-40.527,0.000,0
1602092587.635,-47.363,-24.414,-31.250,-44.434,0.000,0
1602092587.639,-50.293,-23.926,-27.832,-34.180,0.000,0
1602092587.643,-36.621,-25.879,-25.391,-20.508,0.000,0
1602092587.647,-19.531,-29.297,-24.902,-20.996,0.000,0
1602092587.651,-18.066,-23.926,-22.949,-20.996,0.000,0
1602092587.655,-24.414,-24.414,-20.996,-27.344,0.000,0
1602092587.659,-25.879,-29.785,-18.555,-26.855,0.000,0
1602092587.663,-25.391,-30.273,-18.555,-12.207,0.000,0
1602092587.666,-35.156,-26.367,-19.531,-19.531,0.000,0
1602092587.670,-29.785,-20.508,-20.020,-22.949,0.000,0
1602092587.674,-24.414,-23.926,-23.438,-17.578,0.000,0
1602092587.678,-26.367,-28.320,-26.855,-27.344,0.000,0
1602092587.682,-30.762,-26.855,-28.320,-30.762,0.000,0
1602092587.686,-28.320,-25.391,-27.344,-29.297,0.000,0
1602092587.690,-14.648,-26.855,-20.996,-32.227,0.000,0
1602092587.694,-8.301,-27.344,-23.926,-39.062,0.000,0
1602092587.698,-24.414,-29.297,-27.832,-36.621,0.000,0
1602092587.702,-29.785,-29.297,-21.973,-18.555,0.000,0
1602092587.705,-27.832,-22.949,-16.113,-11.719,0.000,0
1602092587.709,-44.434,-22.949,-12.695,-17.090,0.000,0
1602092587.713,-52.246,-23.926,-20.996,-23.438,0.000,0
1602092587.717,-48.340,-23.438,-22.949,-19.043,0.000,0
1602092587.721,-52.246,-27.344,-21.973,-9.766,0.000,0
1602092587.725,-47.852,-28.320,-26.855,-11.719,0.000,0
1602092587.729,-43.945,-26.367,-26.855,-25.391,0.000,0
1602092587.733,-40.527,-24.902,-25.391,-35.645,0.000,0
1602092587.737,-41.016,-22.461,-29.297,-33.691,0.000,0
1602092587.741,-62.988,-20.020,-29.297,-30.762,0.000,0
1602092587.745,-62.500,-19.043,-22.461,-29.785,0.000,0
1602092587.748,-39.062,-17.090,-23.926,-26.855,0.000,0
1602092587.752,-23.926,-16.602,-24.902,-28.809,0.000,0
1602092587.756,-40.039,-21.973,-25.879,-29.297,0.000,0
1602092587.760,-48.828,-26.367,-23.926,-19.531,0.000,0
1602092587.764,-32.715,-25.391,-16.113,-17.578,0.000,0
1602092587.768,-22.949,-20.996,-19.531,-34.180,0.000,0
1602092587.772,-30.762,-21.973,-22.461,-51.270,0.000,0
1602092587.776,-39.062,-20.508,-17.090,-49.316,0.000,0
1602092587.780,-44.434,-17.578,-17.578,-33.203,0.000,0
1602092587.784,-52.734,-20.508,-23.438,-23.438,0.000,0
1602092587.788,-45.898,-25.879,-25.391,-23.926,0.000,0
1602092587.791,-53.223,-24.902,-19.531,-32.715,0.000,0
1602092587.795,-71.777,-25.879,-20.996,-41.992,0.000,0
1602092587.799,-51.758,-25.879,-22.461,-40.527,0.000,0
1602092587.803,-37.598,-19.043,-26.367,-36.621,0.000,0
1602092587.807,-58.594,-22.461,-30.273,-43.945,0.000,0
1602092587.811,-62.012,-27.832,-28.809,-46.387,0.000,0
1602092587.815,-68.848,-27.832,-30.762,-46.387,0.000,0
1602092587.819,-84.473,-25.879,-29.297,-48.828,0.000,0
1602092587.823,-82.520,-22.949,-22.461,-33.691,0.000,0
1602092587.827,-71.289,-20.996,-20.996,-27.344,0.000,0
1602092587.830,-71.777,-25.879,-23.438,-37.109,0.000,0
1602092587.834,-70.801,-28.809,-26.367,-48.828,0.000,0
1602092587.838,-50.293,-22.461,-30.273,-50.293,0.000,0
1602092587.842,-38.086,-21.484,-26.367,-49.805,0.000,0
1602092587.846,-33.691,-21.484,-22.949,-51.758,0.000,0
1602092587.850,-27.344,-20.020,-23.438,-42.969,0.000,0
1602092587.854,-31.250,-27.832,-25.879,-51.758,0.000,0
1602092587.858,-47.363,-31.250,-27.344,-62.500,0.000,0
1602092587.862,-47.852,-27.832,-26.367,-48.340,0.000,0
1602092587.866,-33.691,-26.855,-25.879,-51.758,0.000,0
1602092587.870,-22.461,-27.344,-30.273,-59.082,0.000,0
1602092587.873,-20.020,-28.809,-35.645,-56.641,0.000,0
1602092587.877,-26.367,-27.832,-34.668,-58.594,0.000,0
1602092587.881,-27.344,-26.367,-30.762,-44.434,0.000,0
1602092587.885,-20.508,-27.344,-23.926,-28.809,0.000,0
1602092587.889,-12.207,-24.414,-24.414,-33.203,0.000,0
1602092587.893,-6.348,-25.391,-26.855,-38.086,0.000,0
1602092587.897,-30.762,-26.367,-23.926,-44.922,0.000,0
1602092587.901,-59.082,-25.879,-24.414,-52.246,0.000,0
1602092587.905,-43.457,-30.762,-23.438,-40.527,0.000,0
1602092587.909,-24.414,-26.855,-24.902,-40.527,0.000,0
1602092587.913,-20.508,-20.020,-27.344,-43.945,0.000,0
1602092587.916,-14.160,-22.949,-27.832,-43.457,0.000,0
1602092587.920,-15.137,-24.902,-31.250,-36.621,0.000,0
1602092587.924,-22.461,-23.438,-30.273,-26.855,0.000,0
1602092587.928,-23.926,-19.531,-25.879,-37.109,0.000,0
1602092587.932,-26.367,-18.555,-25.879,-46.875,0.000,0
1602092587.936,-36.621,-21.973,-26.855,-42.969,0.000,0
1602092587.940,-30.273,-26.367,-24.414,-39.551,0.000,0
1602092587.944,-19.043,-26.855,-22.949,-42.969,0.000,0
1602092587.948,-15.137,-24.902,-21.973,-45.410,0.000,0
1602092587.952,-20.508,-24.414,-22.949,-49.316,0.000,0
1602092587.955,-26.855,-27.344,-21.973,-51.270,0.000,0
1602092587.959,-20.508,-27.344,-20.020,-42.480,0.000,0
1602092587.963,-11.719,-24.902,-18.555,-19.531,0.000,0
1602092587.967,8.789,-21.484,-20.020,-17.578,0.000,0
1602092587.971,2.930,-22.461,-21.973,-32.715,0.000,0
1602092587.975,-33.203,-29.297,-18.555,-42.480,0.000,0
1602092587.979,-30.273,-29.297,-20.508,-34.180,0.000,0
1602092587.983,-25.879,-27.344,-22.949,-20.020,0.000,0
1602092587.987,-26.367,-30.762,-15.137,-29.785,0.000,0
1602092587.991,-9.277,-27.344,-16.602,-40.527,0.000,0
1602092587.995,-14.160,-25.879,-25.879,-45.898,0.000,0
1602092587.998,-23.438,-26.367,-30.273,-43.945,0.000,0
1602092588.002,-23.438,-27.344,-27.344,-27.832,0.000,0
1602092588.006,-32.227,-35.645,-29.297,-28.320,0.000,0
1602092588.010,-22.949,-33.691,-30.273,-35.645,0.000,0
1602092588.014,-27.344,-27.832,-27.344,-36.133,0.000,0
1602092588.018,-40.527,-34.180,-27.344,-27.832,0.000,0
1602092588.022,-53.711,-33.691,-23.926,-9.277,0.000,0
1602092588.026,-63.477,-29.297,-20.508,-11.230,0.000,0
1602092588.030,-55.664,-27.832,-23.926,-10.742,0.000,0
1602092588.034,-56.152,-22.949,-19.531,-17.578,0.000,0
1602092588.038,-72.266,-22.949,-15.137,-30.273,0.000,0
1602092588.041,-83.008,-22.461,-17.090,-25.879,0.000,0
1602092588.045,-73.730,-22.461,-19.043,-11.719,0.000,0
1602092588.049,-62.988,-24.414,-21.973,-6.836,0.000,0
1602092588.053,-48.340,-21.484,-24.902,-12.695,0.000,0
1602092588.057,-59.082,-26.367,-25.391,-17.578,0.000,0
1602092588.061,-87.402,-32.227,-22.949,-13.184,0.000,0
1602092588.065,-70.801,-22.949,-23.438,-4.395,0.000,0
1602092588.069,-64.941,-17.090,-21.973,-10.254,0.000,0
1602092588.073,-90.332,-22.949,-20.020,-15.625,0.000,0
1602092588.077,-104.492,-24.414,-23.438,-24.414,0.000,0
1602092588.080,-100.098,-25.391,-26.855,-22.461,0.000,0
1602092588.084,-77.148,-22.949,-25.879,-8.789,0.000,0
1602092588.088,-65.918,-20.020,-24.414,-7.812,0.000,0
1602092588.092,-65.918,-23.926,-25.391,-18.555,0.000,0
1602092588.096,-68.848,-26.367,-30.273,-18.066,0.000,0
1602092588.100,-79.590,-26.855,-28.320,-15.625,0.000,0
1602092588.104,-78.125,-30.273,-24.902,-7.324,0.000,0
1602092588.108,-80.566,-28.320,-28.809,-4.395,0.000,0
1602092588.112,-83.008,-26.855,-30.762,-3.906,0.000,0
1602092588.116,-71.289,-18.066,-27.832,-17.090,0.000,0
1602092588.120,-66.406,-12.695,-25.391,-25.391,0.000,0
1602092588.123,-51.270,-21.973,-20.996,-17.578,0.000,0
1602092588.127,-36.133,-24.414,-19.043,-6.348,0.000,0
1602092588.131,-53.223,-20.508,-18.555,-2.930,0.000,0
1602092588.135,-62.500,-24.902,-20.508,-21.973,0.000,0
1602092588.139,-66.406,-28.809,-20.996,-20.508,0.000,0
1602092588.143,-55.176,-30.273,-19.531,-4.395,0.000,0
1602092588.147,-29.297,-28.320,-18.555,-10.254,0.000,0
1602092588.151,-3.418,-19.531,-16.602,-11.719,0.000,0
1602092588.155,-9.277,-19.043,-20.508,-17.578,0.000,0
1602092588.159,-40.039,-23.438,-24.902,-29.297,0.000,0
1602092588.163,-31.250,-26.855,-22.461,-20.996,0.000,0
1602092588.166,-5.371,-21.484,-23.438,-11.230,0.000,0
1602092588.170,-7.812,-19.531,-24.902,-10.254,0.000,0
1602092588.174,-36.621,-23.438,-20.020,-18.066,0.000,0
1602092588.178,-34.180,-24.902,-19.531,-19.531,0.000,0
1602092588.182,-20.020,-21.973,-20.996,-18.555,0.000,0
1602092588.186,-22.949,-21.484,-19.043,-21.484,0.000,0
1602092588.190,-17.090,-22.461,-18.066,-17.578,0.000,0
1602092588.194,-31.250,-21.973,-16.602,-32.715,0.000,0
1602092588.198,-41.992,-21.973,-18.066,-37.598,0.000,0
1602092588.202,-32.715,-22.461,-19.531,-24.414,0.000,0
1602092588.205,-14.160,-23.926,-20.996,-21.973,0.000,0
1602092588.209,-9.766,-23.438,-20.508,-19.531,0.000,0
1602092588.213,-22.461,-25.391,-15.625,-21.973,0.000,0
1602092588.217,-18.555,-24.902,-15.137,-13.672,0.000,0
1602092588.221,-32.227,-22.461,-19.043,-15.625,0.000,0
1602092588.225,-38.086,-20.508,-18.555,-23.926,0.000,0
1602092588.229,-24.902,-26.855,-18.066,-12.695,0.000,0
1602092588.233,-33.203,-26.855,-20.020,-19.531,0.000,0
1602092588.237,-35.156,-23.438,-23.438,-26.855,0.000,0
1602092588.241,-17.090,-24.414,-19.531,-14.648,0.000,0
1602092588.245,-16.602,-26.855,-17.578,-11.719,0.000,0
1602092588.248,-21.484,-28.320,-22.461,-7.812,0.000,0
1602092588.252,-13.672,-30.273,-21.484,-13.184,0.000,0
1602092588.256,-17.090,-31.250,-21.973,-27.344,0.000,0
1602092588.260,-21.484,-29.785,-21.973,-23.438,0.000,0
1602092588.264,-14.648,-28.809,-19.043,-27.832,0.000,0
1602092588.268,-12.695,-24.414,-22.461,-26.855,0.000,0
1602092588.272,-15.625,-20.996,-24.902,-28.809,0.000,0
1602092588.276,-25.879,-22.949,-27.832,-41.016,0.000,0
1602092588.280,-21.973,-20.996,-27.344,-38.574,0.000,0
1602092588.284,-5.859,-20.996,-24.414,-30.762,0.000,0
1602092588.288,-15.137,-23.438,-20.508,-33.203,0.000,0
1602092588.291,-23.926,-20.996,-19.043,-42.480,0.000,0
1602092588.295,-10.254,-23.438,-21.973,-42.480,0.000,0
1602092588.299,16.113,-24.414,-21.973,-39.551,0.000,0
1602092588.303,41.992,-22.461,-24.414,-33.203,0.000,0
1602092588.307,56.152,-23.438,-26.367,-30.273,0.000,0
1602092588.311,71.289,-23.438,-23.926,-39.062,0.000,0
1602092588.315,78.613,-25.879,-24.414,-45.898,0.000,0
1602092588.319,81.055,-24.902,-26.855,-44.434,0.000,0
1602092588.323,87.402,-22.949,-27.832,-31.250,0.000,0
1602092588.327,90.820,-22.949,-24.902,-19.043,0.000,0
1602092588.330,107.910,-24.902,-28.809,-24.414,0.000,0
1602092588.334,104.004,-27.832,-29.785,-31.250,0.000,0
1602092588.338,85.938,-22.461,-26.367,-41.016,0.000,0
1602092588.342,81.543,-23.926,-25.879,-34.180,0.000,0
1602092588.346,87.891,-25.391,-24.414,-25.391,0.000,0
1602092588.350,96.191,-24.902,-20.996,-36.133,0.000,0
1602092588.354,90.820,-25.391,-20.996,-41.016,0.000,0
1602092588.358,95.215,-22.949,-22.949,-32.227,0.000,0
1602092588.362,102.539,-22.949,-20.996,-20.508,0.000,0
1602092588.366,106.934,-25.391,-23.438,-18.555,0.000,0
1602092588.370,101.074,-26.367,-26.367,-15.625,0.000,0
1602092588.373,81.543,-26.367,-24.414,-14.160,0.000,0
1602092588.377,79.590,-27.832,-22.461,-33.203,0.000,0
1602092588.381,86.426,-26.855,-21.484,-31.250,0.000,0
1602092588.385,99.609,-21.973,-25.391,-23.926,0.000,0
1602092588.389,101.562,-20.996,-22.949,-20.508,0.000,0
1602092588.393,87.402,-21.973,-16.113,-21.973,0.000,0
1602092588.397,66.406,-22.949,-20.996,-38.574,0.000,0
1602092588.401,51.758,-23.438,-29.785,-38.086,0.000,0
1602092588.405,61.523,-22.949,-30.762,-30.762,0.000,0
1602092588.409,70.312,-26.367,-29.297,-41.992,0.000,0
1602092588.413,68.848,-27.344,-28.809,-41.504,0.000,0
1602092588.416,67.383,-30.762,-25.879,-37.109,0.000,0
1602092588.420,59.570,-31.738,-20.996,-42.480,0.000,0
1602092588.424,62.988,-27.344,-17.578,-34.668,0.000,0
1602092588.428,71.777,-28.809,-19.531,-31.738,0.000,0
1602092588.432,68.359,-32.227,-24.902,-30.273,0.000,0
1602092588.436,51.758,-33.203,-25.391,-37.109,0.000,1
1602092588.440,39.551,-30.273,-21.973,-39.062,0.000,0
1602092588.444,31.250,-28.320,-21.973,-21.973,0.000,0
1602092588.448,24.902,-27.832,-24.902,-22.949,0.000,0
1602092588.452,31.250,-29.785,-23.438,-40.039,0.000,0
1602092588.455,19.531,-32.227,-21.973,-37.598,0.000,0
1602092588.459,13.184,-29.785,-24.414,-25.879,0.000,0
1602092588.463,24.902,-30.762,-21.973,-25.879,0.000,0
1602092588.467,31.250,-30.273,-19.531,-22.461,0.000,0
1602092588.471,16.602,-31.738,-22.949,-23.926,0.000,0
1602092588.475,11.230,-33.691,-25.879,-31.250,0.000,0
1602092588.479,17.578,-34.668,-23.438,-31.738,0.000,0
1602092588.483,12.207,-36.133,-24.414,-22.461,0.000,0
1602092588.487,18.066,-31.250,-26.367,-26.367,0.000,0
1602092588.491,25.391,-27.832,-23.926,-32.227,0.000,0
1602092588.495,12.207,-27.832,-21.484,-31.250,0.000,0
1602092588.498,7.324,-25.879,-19.043,-29.785,0.000,0
1602092588.502,-0.488,-25.879,-22.461,-22.949,0.000,0
1602092588.506,-1.465,-28.809,-26.367,-17.090,0.000,0
1602092588.510,14.160,-29.785,-24.902,-12.695,0.000,0
1602092588.514,11.230,-27.344,-22.461,-24.414,0.000,0
1602092588.518,10.742,-27.832,-20.996,-39.062,0.000,0
1602092588.522,0.977,-32.227,-23.438,-36.133,0.000,0
1602092588.526,-6.348,-34.668,-28.320,-32.715,0.000,0
1602092588.530,4.395,-38.574,-26.367,-35.156,0.000,0
1602092588.534,-4.883,-38.574,-27.832,-43.457,0.000,0
1602092588.538,-8.789,-31.738,-27.832,-42.480,0.000,0
1602092588.541,-13.672,-28.320,-22.949,-32.227,0.000,0
1602092588.545,-11.719,-28.809,-25.391,-23.926,0.000,0
1602092588.549,0.000,-28.809,-27.832,-19.531,0.000,0
1602092588.553,0.977,-26.855,-24.902,-20.508,0.000,0
1602092588.557,-6.348,-28.809,-21.973,-29.785,0.000,0
1602092588.561,-7.812,-31.250,-22.461,-20.020,0.000,0
1602092588.565,-3.418,-31.738,-22.461,-8.301,0.000,0
1602092588.569,-8.789,-31.738,-24.414,-22.949,0.000,0
1602092588.573,-13.184,-27.832,-24.414,-34.668,0.000,0
1602092588.577,-14.648,-22.461,-22.461,-31.250,0.000,0
1602092588.580,-10.254,-20.996,-22.949,-22.461,0.000,0
1602092588.584,-6.836,-23.926,-20.996,-28.809,0.000,0
1602092588.588,-15.137,-21.973,-18.555,-37.109,0.000,0
1602092588.592,-9.766,-24.414,-15.625,-33.203,0.000,0
1602092588.596,-24.414,-27.832,-10.254,-41.504,0.000,0
1602092588.600,-32.227,-25.879,-7.812,-44.434,0.000,0
1602092588.604,-8.301,-22.461,-10.742,-27.832,0.000,0
1602092588.608,8.301,-24.414,-16.602,-33.691,0.000,0
1602092588.612,0.488,-23.438,-20.996,-32.227,0.000,0
1602092588.616,-9.277,-21.484,-16.602,-19.043,0.000,0
1602092588.620,3.418,-20.020,-11.719,-26.855,0.000,0
1602092588.623,9.766,-21.973,-16.602,-17.090,0.000,0
1602092588.627,25.879,-23.438,-22.461,-10.254,0.000,0
1602092588.631,20.996,-23.926,-20.996,-10.254,0.000,0
1602092588.635,-10.742,-31.250,-17.578,-21.973,0.000,0
1602092588.639,-23.926,-32.715,-21.484,-36.621,0.000,0
1602092588.643,-5.859,-31.738,-18.066,-27.832,0.000,0
1602092588.647,20.508,-28.320,-15.137,-25.391,0.000,0
1602092588.651,1.465,-24.414,-19.531,-35.645,0.000,0
1602092588.655,-20.020,-28.320,-16.602,-41.016,0.000,0
1602092588.659,-6.348,-26.855,-17.090,-36.621,0.000,0
1602092588.663,-5.859,-24.902,-16.113,-21.973,0.000,0
1602092588.666,0.000,-25.879,-12.207,-21.973,0.000,0
1602092588.670,17.090,-27.832,-12.695,-27.832,0.000,0
1602092588.674,-8.301,-31.738,-16.113,-29.297,0.000,0
1602092588.678,-27.832,-29.785,-19.531,-31.250,0.000,0
1602092588.682,-10.742,-25.879,-18.555,-35.156,0.000,0
1602092588.686,-4.883,-29.297,-17.578,-40.039,0.000,0
1602092588.690,-2.441,-27.344,-15.137,-34.180,0.000,0
1602092588.694,-0.977,-20.996,-17.090,-32.227,0.000,0
1602092588.698,-22.461,-21.973,-25.391,-48.828,0.000,0
1602092588.702,-29.785,-22.949,-24.902,-43.945,0.000,0
1602092588.705,-20.020,-22.949,-19.531,-27.832,0.000,0
1602092588.709,-20.020,-25.879,-17.578,-30.762,0.000,0
1602092588.713,-17.090,-25.391,-20.020,-33.691,0.000,0
1602092588.717,-16.113,-23.438,-18.066,-33.203,0.000,0
1602092588.721,-13.184,-27.832,-20.996,-38.574,0.000,0
1602092588.725,-8.301,-33.691,-23.438,-30.762,0.000,0
1602092588.729,5.371,-30.273,-22.461,-25.879,0.000,0
1602092588.733,4.883,-26.855,-22.949,-30.273,0.000,0
1602092588.737,-20.508,-23.438,-21.484,-32.715,0.000,0
1602092588.741,-16.602,-25.879,-19.043,-34.668,0.000,0
1602092588.745,-4.883,-29.785,-18.555,-21.973,0.000,0
1602092588.748,-0.977,-24.902,-18.066,-10.742,0.000,0
1602092588.752,0.000,-22.461,-21.484,-25.879,0.000,0
1602092588.756,-9.766,-25.879,-21.973,-41.016,0.000,0
1602092588.760,-1.465,-24.414,-20.020,-37.109,0.000,0
1602092588.764,16.602,-23.438,-21.973,-29.785,0.000,0
1602092588.768,9.277,-25.879,-25.391,-31.250,0.000,0
1602092588.772,-5.371,-26.367,-21.973,-40.039,0.000,0
1602092588.776,-20.020,-29.297,-22.461,-45.898,0.000,0
1602092588.780,-26.367,-24.902,-27.832,-43.457,0.000,0
1602092588.784,-11.230,-26.367,-20.508,-31.738,0.000,0
1602092588.788,3.906,-26.367,-22.461,-25.879,0.000,0
1602092588.791,10.254,-13.184,-36.133,-38.086,0.000,0
1602092588.795,-8.301,-10.254,-35.156,-49.805,0.000,0
1602092588.799,-31.738,-20.020,-26.855,-38.574,0.000,0
1602092588.803,-33.691,-26.367,-27.344,-29.785,0.000,0
1602092588.807,-21.973,-20.996,-31.738,-42.480,0.000,0
1602092588.811,-2.930,-18.555,-30.762,-42.480,0.000,0
1602092588.815,-6.348,-24.902,-33.203,-44.434,0.000,0
1602092588.819,-29.297,-31.738,-32.227,-58.594,0.000,0
1602092588.823,-29.785,-28.809,-30.762,-51.270,0.000,0
1602092588.827,-20.508,-24.414,-34.180,-42.480,0.000,0
1602092588.830,-21.484,-25.879,-31.250,-41.504,0.000,0
1602092588.834,-11.719,-22.461,-28.320,-32.227,0.000,0
1602092588.838,-8.789,-20.996,-27.832,-22.461,0.000,0
1602092588.842,8.301,-26.855,-21.973,-21.484,0.000,0
1602092588.846,12.207,-26.855,-20.020,-22.461,0.000,0
1602092588.850,-11.230,-26.367,-23.438,-21.484,0.000,0
1602092588.854,-16.113,-31.738,-22.461,-30.273,0.000,0
1602092588.858,-14.160,-33.691,-23.926,-36.621,0.000,0
1602092588.862,-18.555,-27.832,-26.855,-35.645,0.000,0
1602092588.866,-10.742,-24.902,-21.973,-26.855,0.000,0
1602092588.870,-2.441,-26.367,-22.461,-26.367,0.000,0
1602092588.873,-11.719,-26.367,-24.902,-18.555,0.000,0
1602092588.877,-15.137,-24.414,-23.438,-17.578,0.000,0
1602092588.881,-16.602,-21.973,-27.344,-32.227,0.000,0
1602092588.885,-16.113,-27.344,-28.809,-34.180,0.000,0
1602092588.889,-2.441,-28.320,-21.973,-25.879,0.000,0
1602092588.893,-17.090,-26.855,-24.902,-26.367,0.000,0
1602092588.897,-40.527,-30.762,-28.320,-31.738,0.000,0
1602092588.901,-35.645,-29.297,-28.320,-31.738,0.000,0
1602092588.905,-20.508,-25.391,-25.879,-14.160,0.000,0
1602092588.909,-14.160,-30.762,-20.996,-16.602,0.000,0
1602092588.913,-8.789,-31.250,-22.949,-33.691,0.000,0
1602092588.916,-6.836,-33.203,-26.367,-34.668,0.000,0
1602092588.920,-18.555,-34.180,-21.484,-34.668,0.000,0
1602092588.924,-17.578,-29.785,-20.996,-26.855,0.000,0
1602092588.928,-16.113,-30.273,-24.414,-19.531,0.000,0
1602092588.932,-14.648,-30.273,-23.438,-19.531,0.000,0
1602092588.936,-13.184,-30.762,-22.461,-26.855,0.000,0
1602092588.940,-19.043,-32.227,-23.926,-26.367,0.000,0
1602092588.944,-15.137,-26.367,-23.438,-14.160,0.000,0
1602092588.948,-10.254,-23.438,-22.461,-6.348,0.000,0
1602092588.952,-3.418,-24.902,-21.484,-15.625,0.000,0
1602092588.955,-2.930,-20.508,-21.484,-21.973,0.000,0
1602092588.959,-10.254,-19.531,-21.973,-19.531,0.000,0
1602092588.963,-2.930,-22.949,-22.461,-10.742,0.000,0
1602092588.967,1.465,-24.414,-28.809,-15.137,0.000,0
1602092588.971,-8.301,-22.949,-32.227,-22.949,0.000,0
1602092588.975,-18.555,-20.020,-25.391,-25.391,0.000,0
1602092588.979,-18.066,-20.996,-20.996,-21.484,0.000,0
1602092588.983,-12.207,-23.438,-24.414,-21.973,0.000,0
1602092588.987,-2.441,-23.438,-25.879,-21.973,0.000,0
1602092588.991,-3.906,-21.973,-24.902,-18.555,0.000,0
1602092588.995,-28.809,-22.949,-23.926,-31.250,0.000,0
1602092588.998,-41.504,-24.902,-25.391,-43.945,0.000,0
1602092589.002,-32.227,-27.344,-23.926,-33.691,0.000,0
1602092589.006,-18.066,-33.203,-20.508,-32.227,0.000,0
1602092589.010,-13.672,-35.156,-24.902,-42.969,0.000,0
1602092589.014,-23.438,-33.691,-26.367,-40.039,0.000,0
1602092589.018,-16.113,-28.809,-23.926,-39.062,0.000,0
1602092589.022,-26.855,-32.227,-23.438,-36.621,0.000,0
1602092589.026,-37.598,-33.203,-21.973,-31.738,0.000,0
1602092589.030,-22.949,-28.809,-18.555,-36.133,0.000,0
1602092589.034,-2.441,-23.438,-18.066,-33.691,0.000,0
1602092589.038,-15.137,-19.043,-19.043,-30.762,0.000,0
1602092589.041,-31.250,-19.043,-20.996,-14.160,0.000,0
1602092589.045,-15.137,-15.625,-19.043,-11.230,0.000,0
1602092589.049,0.000,-20.996,-18.555,-20.996,0.000,0
1602092589.053,-6.836,-25.879,-18.555,-28.809,0.000,0
1602092589.057,-29.785,-24.902,-20.508,-41.016,0.000,0
1602092589.061,-31.738,-24.902,-22.949,-38.574,0.000,0
1602092589.065,-20.996,-25.879,-20.508,-36.621,0.000,0
1602092589.069,-14.648,-27.832,-22.461,-30.273,0.000,0
1602092589.073,-6.836,-25.391,-21.484,-24.902,0.000,0
1602092589.077,-9.277,-20.020,-13.184,-24.902,0.000,0
1602092589.080,-23.926,-20.020,-14.648,-21.973,0.000,0
1602092589.084,-23.438,-22.461,-20.996,-18.555,0.000,0
1602092589.088,-8.301,-21.484,-21.484,-25.391,0.000,0
1602092589.092,9.766,-19.531,-19.531,-22.949,0.000,0
1602092589.096,4.395,-20.508,-16.602,-27.344,0.000,0
1602092589.100,-26.855,-24.414,-16.113,-34.668,0.000,0
1602092589.104,-14.160,-27.344,-17.090,-19.531,0.000,0
1602092589.108,1.465,-25.391,-14.648,-5.859,0.000,0
1602092589.112,-12.695,-25.391,-18.066,-6.836,0.000,0
1602092589.116,-20.996,-28.809,-21.973,-21.973,0.000,0
1602092589.120,-13.184,-32.227,-17.090,-26.855,0.000,0
1602092589.123,-16.113,-28.320,-16.602,-19.043,0.000,0
1602092589.127,-14.648,-28.320,-19.043,-16.602,0.000,0
1602092589.131,-10.254,-32.227,-20.020,-22.461,0.000,0
1602092589.135,-10.254,-28.320,-23.438,-20.996,0.000,0
1602092589.139,-5.371,-26.367,-22.461,-20.508,0.000,0
1602092589.143,0.488,-23.926,-21.973,-7.324,0.000,0
1602092589.147,-10.742,-24.902,-24.414,-9.766,0.000,0
1602092589.151,-9.277,-35.156,-21.973,-29.297,0.000,0
1602092589.155,2.441,-32.715,-24.414,-32.227,0.000,0
1602092589.159,-10.254,-29.297,-28.320,-38.086,0.000,0
1602092589.163,-15.137,-28.809,-26.367,-33.203,0.000,0
1602092589.166,-5.371,-25.879,-25.391,-24.902,0.000,0
1602092589.170,-8.789,-27.344,-26.367,-18.555,0.000,0
1602092589.174,-10.742,-25.391,-28.320,-18.066,0.000,0
1602092589.178,-0.977,-24.414,-26.855,-19.531,0.000,0
1602092589.182,-4.395,-22.949,-21.973,-6.836,0.000,0
1602092589.186,-6.348,-23.438,-20.020,-9.277,0.000,0
1602092589.190,-2.930,-28.809,-24.902,-23.438,0.000,0
1602092589.194,-3.418,-28.809,-30.762,-32.227,0.000,0
1602092589.198,-2.441,-24.902,-30.273,-31.250,0.000,0
1602092589.202,-11.719,-22.461,-27.832,-11.719,0.000,0
1602092589.205,-14.160,-24.902,-25.879,-11.230,0.000,0
1602092589.209,-9.766,-28.809,-20.508,-14.648,0.000,0
1602092589.213,-6.836,-30.273,-20.020,-12.207,0.000,0
1602092589.217,-17.578,-29.297,-23.438,-21.973,0.000,0
1602092589.221,-31.738,-28.809,-24.414,-27.344,0.000,0
1602092589.225,-33.203,-31.738,-26.367,-21.484,0.000,0
1602092589.229,-33.203,-28.320,-26.855,-15.625,0.000,0
1602092589.233,-33.203,-24.902,-28.320,-25.879,0.000,0
1602092589.237,-27.344,-24.414,-27.832,-29.785,0.000,0
1602092589.241,-21.973,-23.438,-22.461,-20.508,0.000,0
1602092589.245,-31.250,-23.438,-23.926,-22.461,0.000,0
1602092589.248,-18.555,-21.973,-29.785,-20.996,0.000,0
1602092589.252,-12.695,-24.414,-28.809,-20.508,0.000,0
1602092589.256,-19.043,-29.785,-29.297,-20.020,0.000,0
1602092589.260,-20.508,-29.785,-26.855,-14.160,0.000,0
1602092589.264,3.418,-21.973,-23.926,-18.066,0.000,0
1602092589.268,15.625,-22.461,-23.438,-16.602,0.000,0
1602092589.272,11.230,-23.926,-22.461,-16.602,0.000,0
1602092589.276,5.859,-22.461,-24.414,-24.414,0.000,0
1602092589.280,-4.395,-25.879,-25.391,-23.438,0.000,0
1602092589.284,12.207,-23.926,-24.414,-10.254,0.000,0
1602092589.288,38.086,-21.484,-23.438,-20.020,0.000,0
1602092589.291,38.086,-23.438,-22.461,-24.902,0.000,0
1602092589.295,31.738,-25.879,-20.508,-22.461,0.000,0
1602092589.299,15.625,-26.367,-15.625,-21.973,0.000,0
1602092589.303,4.395,-24.902,-20.020,-18.066,0.000,0
1602092589.307,15.137,-27.344,-26.855,-23.438,0.000,0
1602092589.311,8.301,-31.250,-27.344,-22.949,0.000,0
1602092589.315,7.812,-26.855,-25.879,-26.855,0.000,0
1602092589.319,22.461,-23.438,-23.926,-29.785,0.000,0
1602092589.323,23.438,-25.879,-24.414,-26.855,0.000,0
1602092589.327,28.809,-25.391,-30.273,-26.367,0.000,0
1602092589.330,38.086,-23.926,-29.785,-25.879,0.000,0
1602092589.334,15.137,-24.902,-27.832,-32.715,0.000,0
1602092589.338,3.418,-19.531,-27.344,-37.598,0.000,0
1602092589.342,13.672,-19.043,-22.461,-23.438,0.000,0
1602092589.346,16.113,-22.461,-24.414,-20.020,0.000,0
1602092589.350,5.371,-27.832,-28.320,-20.508,0.000,0
1602092589.354,-17.090,-31.738,-32.715,-26.367,0.000,0
1602092589.358,-22.949,-26.855,-33.691,-34.668,0.000,0
1602092589.362,7.324,-24.414,-28.320,-24.414,0.000,0
1602092589.366,23.926,-25.391,-23.438,-12.695,0.000,0
1602092589.370,14.160,-23.438,-28.320,-21.973,0.000,0
1602092589.373,8.789,-26.367,-28.320,-32.715,0.000,0
1602092589.377,9.766,-30.273,-21.973,-29.297,0.000,0
1602092589.381,29.785,-27.832,-23.438,-25.391,0.000,0
1602092589.385,37.109,-28.320,-28.320,-17.578,0.000,0
1602092589.389,31.250,-29.297,-24.902,-3.906,0.000,0
1602092589.393,47.852,-27.832,-20.996,2.930,0.000,0
1602092589.397,45.410,-20.508,-16.113,-11.230,0.000,0
1602092589.401,20.020,-17.578,-21.973,-36.621,0.000,0
1602092589.405,24.902,-16.113,-27.344,-24.414,0.000,0
1602092589.409,30.762,-14.648,-22.461,-20.020,0.000,0
1602092589.413,28.320,-22.949,-21.973,-29.297,0.000,0
1602092589.416,28.320,-27.344,-24.902,-30.762,0.000,0
1602092589.420,25.391,-27.344,-20.508,-28.320,0.000,0
1602092589.424,30.273,-29.297,-20.508,-13.184,0.000,0
1602092589.428,39.551,-31.250,-22.949,-12.207,0.000,0
1602092589.432,33.691,-34.668,-21.484,-18.555,0.000,0
1602092589.436,14.160,-36.621,-19.531,-16.602,0.000,0
1602092589.440,-10.254,-35.156,-17.090,-15.137,0.000,0
1602092589.444,-9.277,-37.598,-19.043,-8.789,0.000,0
1602092589.448,8.789,-37.109,-22.461,-0.977,0.000,0
1602092589.452,8.789,-31.738,-21.973,-5.859,0.000,0
1602092589.455,-15.137,-33.691,-23.438,-21.973,0.000,0
1602092589.459,-29.785,-35.156,-25.391,-20.996,0.000,0
1602092589.463,-22.949,-34.180,-27.832,-6.348,0.000,0
1602092589.467,-30.762,-33.203,-27.344,-8.789,0.000,0
1602092589.471,-12.207,-31.738,-19.531,-0.977,0.000,0
1602092589.475,-0.977,-27.832,-17.090,-3.418,0.000,0
1602092589.479,-32.715,-29.297,-18.555,-10.254,0.000,0
1602092589.483,-30.762,-32.715,-22.949,-11.230,0.000,0
1602092589.487,-18.555,-33.203,-23.926,-1.953,0.000,0
1602092589.491,-0.488,-32.227,-18.555,-5.859,0.000,0
1602092589.495,11.719,-29.297,-20.996,-14.160,0.000,0
1602092589.498,-12.207,-28.320,-20.020,-11.230,0.000,0
1602092589.502,-21.484,-28.320,-17.578,-7.324,0.000,0
1602092589.506,-20.020,-28.320,-19.531,-6.836,0.000,0
1602092589.510,-20.020,-29.297,-22.461,-15.625,0.000,0
1602092589.514,-16.113,-33.203,-20.996,-9.766,0.000,0
1602092589.518,-11.719,-38.086,-20.996,-17.578,0.000,0
1602092589.522,-17.090,-36.621,-23.438,-15.137,0.000,0
1602092589.526,-18.066,-38.086,-24.414,-5.859,0.000,0
1602092589.530,-11.230,-38.086,-22.461,-12.207,0.000,0
1602092589.534,-9.766,-34.180,-24.414,-15.137,0.000,0
1602092589.538,-26.367,-36.621,-23.438,-12.695,0.000,0
1602092589.541,-39.062,-33.691,-17.090,-10.742,0.000,0
1602092589.545,-21.484,-24.414,-18.555,-14.160,0.000,0
1602092589.549,-10.254,-26.855,-18.555,-17.578,0.000,0
1602092589.553,-4.395,-25.391,-18.066,-17.578,0.000,0
1602092589.557,-22.949,-22.949,-16.602,-17.090,0.000,0
1602092589.561,-37.598,-27.832,-19.531,-12.207,0.000,0
1602092589.565,-28.320,-28.320,-20.020,-5.859,0.000,0
1602092589.569,-13.672,-24.902,-13.184,2.441,0.000,1
1602092589.573,-6.348,-26.855,-16.602,-0.977,0.000,0
1602092589.577,-28.809,-27.832,-22.461,-19.531,0.000,0
1602092589.580,-29.785,-28.320,-24.902,-23.438,0.000,0
1602092589.584,-9.277,-27.344,-23.438,-22.461,0.000,0
1602092589.588,-5.859,-23.438,-22.949,-20.508,0.000,0
1602092589.592,-16.113,-23.926,-23.438,-20.996,0.000,0
1602092589.596,-14.160,-29.785,-23.438,-24.902,0.000,0
1602092589.600,-8.789,-29.297,-20.508,-19.531,0.000,0
1602092589.604,-18.066,-29.297,-16.113,-0.488,0.000,0
1602092589.608,-5.859,-31.250,-20.020,-11.230,0.000,0
1602092589.612,-4.395,-28.809,-23.438,-31.250,0.000,0
1602092589.616,-29.297,-30.273,-22.461,-25.879,0.000,0
1602092589.620,-23.926,-29.297,-22.461,-16.113,0.000,0
1602092589.623,-3.906,-27.344,-24.902,-14.160,0.000,0
1602092589.627,8.789,-26.367,-23.926,-25.879,0.000,0
1602092589.631,6.836,-28.320,-26.367,-27.832,0.000,0
1602092589.635,0.977,-31.738,-27.344,-18.555,0.000,0
1602092589.639,14.160,-29.297,-20.996,-20.020,0.000,0
1602092589.643,27.832,-24.902,-23.926,-16.602,0.000,0
1602092589.647,33.203,-26.367,-28.809,-8.789,0.000,0
1602092589.651,28.320,-28.320,-28.809,-17.578,0.000,0
1602092589.655,37.598,-24.902,-28.809,-27.832,0.000,0
1602092589.659,43.945,-26.367,-32.227,-32.715,0.000,0
1602092589.663,28.809,-26.855,-31.738,-23.926,0.000,0
1602092589.666,31.738,-20.508,-36.133,-9.766,0.000,0
1602092589.670,31.250,-19.531,-33.203,-18.066,0.000,0
1602092589.674,28.320,-23.438,-22.949,-20.508,0.000,0
1602092589.678,33.691,-21.973,-22.949,-13.184,0.000,0
1602092589.682,38.086,-25.391,-26.367,-22.461,0.000,0
1602092589.686,33.203,-29.785,-27.832,-27.832,0.000,0
1602092589.690,27.344,-31.738,-32.715,-24.414,0.000,0
1602092589.694,37.598,-30.273,-33.691,-26.367,0.000,0
1602092589.698,30.273,-22.949,-29.785,-20.020,0.000,0
1602092589.702,26.855,-22.461,-29.785,-9.766,0.000,0
1602092589.705,43.457,-22.461,-27.344,-10.742,0.000,0
1602092589.709,36.133,-20.020,-22.949,-18.555,0.000,0
1602092589.713,33.691,-20.020,-22.461,-18.555,0.000,0
1602092589.717,24.902,-25.879,-25.879,-30.762,0.000,0
1602092589.721,17.090,-25.879,-28.320,-34.668,0.000,0
1602092589.725,34.180,-26.855,-26.855,-21.973,0.000,0
1602092589.729,35.645,-30.762,-27.344,-22.949,0.000,0
1602092589.733,44.434,-26.855,-28.320,-32.227,0.000,0
1602092589.737,36.133,-29.297,-27.344,-29.297,0.000,0
1602092589.741,2.441,-29.297,-28.809,-25.391,0.000,0
1602092589.745,11.719,-24.902,-27.832,-22.461,0.000,0
1602092589.748,27.832,-23.926,-25.879,-20.508,0.000,0
1602092589.752,22.461,-19.531,-24.414,-23.926,0.000,0
1602092589.756,18.066,-20.508,-24.902,-15.625,0.000,0
1602092589.760,21.973,-24.902,-23.438,-18.555,0.000,0
1602092589.764,24.414,-23.438,-22.461,-27.344,0.000,0
1602092589.768,24.902,-24.414,-23.926,-19.043,0.000,0
1602092589.772,26.367,-20.508,-25.391,-14.648,0.000,0
1602092589.776,36.621,-16.113,-24.414,-21.973,0.000,0
1602092589.780,20.508,-16.602,-27.344,-23.438,0.000,0
1602092589.784,3.906,-21.973,-29.297,-19.531,0.000,0
1602092589.788,14.648,-23.926,-27.832,-19.531,0.000,0
1602092589.791,15.625,-24.414,-24.902,-25.879,0.000,0
1602092589.795,8.789,-26.855,-25.879,-33.203,0.000,0
1602092589.799,20.020,-27.344,-26.367,-26.855,0.000,0
1602092589.803,31.738,-29.297,-28.320,-14.160,0.000,0
1602092589.807,24.902,-28.320,-30.762,-19.043,0.000,0
1602092589.811,28.809,-28.809,-27.344,-28.809,0.000,0
1602092589.815,24.902,-24.902,-25.391,-24.902,0.000,0
1602092589.819,16.602,-23.438,-24.414,-26.367,0.000,0
1602092589.823,3.906,-27.832,-25.391,-27.344,0.000,0
1602092589.827,19.043,-29.297,-25.391,-23.438,0.000,0
1602092589.830,23.926,-33.691,-23.438,-20.996,0.000,0
1602092589.834,10.742,-32.715,-23.926,-24.414,0.000,0
1602092589.838,-0.488,-29.785,-26.367,-25.879,0.000,0
1602092589.842,2.930,-28.320,-30.762,-25.391,0.000,0
1602092589.846,18.555,-27.832,-28.809,-18.555,0.000,0
1602092589.850,20.020,-23.926,-32.227,-20.996,0.000,0
1602092589.854,20.996,-21.484,-34.180,-32.715,0.000,0
1602092589.858,6.836,-24.414,-23.926,-31.250,0.000,0
1602092589.862,-3.906,-25.879,-24.902,-21.484,0.000,0
1602092589.866,4.395,-28.320,-26.367,-25.879,0.000,0
1602092589.870,6.348,-27.344,-21.484,-36.621,0.000,0
1602092589.873,22.949,-22.949,-21.484,-33.691,0.000,0
1602092589.877,12.695,-23.926,-22.949,-30.273,0.000,0
1602092589.881,-16.602,-25.391,-24.902,-29.785,0.000,0
1602092589.885,-9.277,-22.461,-27.832,-18.555,0.000,0
1602092589.889,7.324,-24.902,-26.367,-23.438,0.000,0
1602092589.893,5.371,-28.320,-21.973,-29.297,0.000,0
1602092589.897,4.883,-24.414,-21.973,-23.438,0.000,0
1602092589.901,2.930,-20.508,-25.879,-25.391,0.000,0
1602092589.905,0.977,-25.879,-26.367,-17.090,0.000,0
1602092589.909,2.441,-24.414,-21.484,-16.602,0.000,0
1602092589.913,4.883,-18.555,-21.973,-23.926,0.000,0
1602092589.916,12.207,-20.996,-21.484,-24.414,0.000,0
1602092589.920,4.395,-23.926,-22.461,-28.320,0.000,0
1602092589.924,2.441,-22.461,-23.438,-15.625,0.000,0
1602092589.928,11.719,-20.020,-20.508,-10.254,0.000,0
1602092589.932,17.578,-20.020,-21.484,-21.484,0.000,0
1602092589.936,8.789,-20.020,-22.461,-26.855,0.000,0
1602092589.940,-6.836,-20.508,-18.066,-28.809,0.000,0
1602092589.944,2.441,-22.461,-19.531,-20.508,0.000,0
1602092589.948,18.555,-24.414,-24.902,-15.625,0.000,0
1602092589.952,7.812,-27.344,-23.926,-28.809,0.000,0
1602092589.955,-5.371,-25.391,-22.949,-32.227,0.000,0
1602092589.959,-16.602,-23.438,-19.531,-29.785,0.000,0
1602092589.963,-18.555,-22.461,-21.484,-28.320,0.000,0
1602092589.967,-4.395,-20.508,-23.926,-22.461,0.000,0
1602092589.971,12.695,-23.926,-23.438,-26.367,0.000,0
1602092589.975,7.812,-21.973,-25.879,-34.180,0.000,0
1602092589.979,-3.418,-20.020,-28.320,-34.180,0.000,0
1602092589.983,-4.395,-25.391,-29.785,-26.367,0.000,0
1602092589.987,-0.977,-24.414,-23.926,-18.555,0.000,0
1602092589.991,11.719,-20.996,-19.531,-20.508,0.000,0
1602092589.995,11.230,-21.484,-18.555,-25.879,0.000,0
1602092589.998,1.465,-20.020,-21.973,-27.832,0.000,0
1602092590.002,-10.254,-19.043,-30.273,-29.785,0.000,0
1602092590.006,-12.695,-21.973,-27.344,-25.391,0.000,0
1602092590.010,2.930,-28.320,-24.902,-21.484,0.000,0
1602092590.014,9.277,-32.715,-26.855,-36.621,0.000,0
1602092590.018,11.230,-29.785,-29.785,-37.109,0.000,0
1602092590.022,24.414,-27.344,-29.297,-28.320,0.000,0
1602092590.026,15.137,-23.438,-24.414,-26.367,0.000,0
1602092590.030,-6.348,-29.297,-25.391,-32.227,0.000,0
1602092590.034,-16.113,-34.180,-29.785,-38.574,0.000,0
1602092590.038,-6.348,-32.227,-28.809,-34.668,0.000,0
1602092590.041,-0.488,-30.762,-24.414,-29.297,0.000,0
1602092590.045,6.836,-25.879,-26.367,-25.391,0.000,0
1602092590.049,17.578,-24.414,-28.320,-18.555,0.000,0
1602092590.053,23.438,-28.809,-25.391,-21.973,0.000,0
1602092590.057,19.531,-28.320,-21.484,-30.762,0.000,0
1602092590.061,15.137,-26.855,-23.926,-17.578,0.000,0
1602092590.065,15.137,-29.785,-25.879,-22.461,0.000,0
1602092590.069,10.742,-29.785,-21.484,-33.691,0.000,0
1602092590.073,14.160,-26.367,-23.438,-37.598,0.000,0
1602092590.077,20.508,-27.832,-25.879,-41.016,0.000,0
1602092590.080,4.395,-28.809,-25.879,-32.715,0.000,0
1602092590.084,18.066,-25.879,-23.926,-19.043,0.000,0
1602092590.088,45.898,-21.973,-22.461,-22.949,0.000,0
1602092590.092,20.508,-21.973,-25.879,-27.832,0.000,0
1602092590.096,5.859,-24.902,-28.320,-29.297,0.000,0
1602092590.100,12.695,-27.344,-27.832,-34.668,0.000,0
1602092590.104,18.066,-28.809,-25.391,-30.273,0.000,0
1602092590.108,19.531,-28.320,-21.973,-22.949,0.000,0
1602092590.112,15.137,-29.785,-21.973,-20.508,0.000,0
1602092590.116,0.488,-30.762,-23.926,-21.484,0.000,0
1602092590.120,-4.395,-29.297,-22.949,-30.762,0.000,0
1602092590.123,9.277,-29.785,-20.996,-25.879,0.000,0
1602092590.127,2.441,-29.297,-21.973,-24.414,0.000,0
1602092590.131,-7.812,-27.344,-25.879,-35.156,0.000,0
1602092590.135,-0.977,-28.809,-28.320,-33.203,0.000,0
1602092590.139,3.418,-26.855,-26.855,-33.691,0.000,0
1602092590.143,1.953,-27.344,-27.832,-28.320,0.000,0
1602092590.147,-1.465,-31.738,-28.320,-21.973,0.000,0
1602092590.151,-2.930,-30.762,-27.832,-26.855,0.000,0
1602092590.155,-11.230,-30.273,-24.902,-31.738,0.000,0
1602092590.159,-10.254,-32.227,-28.809,-30.762,0.000,0
1602092590.163,0.977,-34.180,-32.715,-24.902,0.000,0
1602092590.166,-3.906,-33.203,-28.320,-23.926,0.000,0
1602092590.170,-3.906,-31.250,-29.297,-17.578,0.000,0
1602092590.174,0.488,-28.320,-32.715,-18.066,0.000,0
1602092590.178,0.000,-27.344,-32.715,-26.855,0.000,0
1602092590.182,1.465,-26.855,-27.344,-19.043,0.000,0
1602092590.186,-2.441,-26.367,-23.438,-14.648,0.000,0
1602092590.190,-7.812,-24.902,-19.531,-19.531,0.000,0
1602092590.194,-1.465,-25.391,-13.184,-19.531,0.000,0
1602092590.198,-0.977,-26.855,-15.625,-28.320,0.000,0
1602092590.202,-7.324,-27.832,-21.484,-22.949,0.000,0
1602092590.205,7.812,-25.391,-22.949,-16.602,0.000,0
1602092590.209,18.066,-25.879,-22.949,-21.484,0.000,0
1602092590.213,-1.465,-33.203,-24.414,-21.484,0.000,0
1602092590.217,-12.695,-34.180,-25.391,-26.855,0.000,0
1602092590.221,-14.160,-28.320,-21.973,-36.133,0.000,0
1602092590.225,-0.977,-23.438,-18.066,-28.809,0.000,0
1602092590.229,16.113,-22.461,-18.555,-21.484,0.000,0
1602092590.233,23.438,-23.438,-18.066,-23.438,0.000,0
1602092590.237,3.906,-23.926,-16.602,-29.297,0.000,0
1602092590.241,-10.742,-32.715,-18.066,-30.273,0.000,0
1602092590.245,-1.465,-34.180,-20.508,-19.531,0.000,0
1602092590.248,2.930,-28.320,-18.555,-13.184,0.000,0
1602092590.252,15.137,-27.344,-21.973,-20.508,0.000,0
1602092590.256,5.371,-25.879,-22.949,-24.414,0.000,0
1602092590.260,-6.836,-27.344,-19.043,-31.250,0.000,0
1602092590.264,10.254,-28.809,-19.531,-23.438,0.000,0
1602092590.268,10.742,-26.855,-19.043,-15.625,0.000,0
1602092590.272,0.488,-24.902,-26.855,-24.414,0.000,0
1602092590.276,0.488,-26.367,-28.320,-20.020,0.000,0
1602092590.280,-3.418,-30.273,-21.973,-26.367,0.000,0
1602092590.284,-11.719,-29.297,-24.414,-28.320,0.000,0
1602092590.288,4.883,-26.855,-21.484,-15.137,0.000,0
1602092590.291,32.227,-23.438,-19.531,-15.137,0.000,0
1602092590.295,11.719,-25.879,-24.902,-23.926,0.000,0
1602092590.299,-22.949,-28.809,-25.879,-26.855,0.000,0
1602092590.303,-22.461,-27.832,-24.414,-17.090,0.000,0
1602092590.307,-5.859,-28.809,-23.438,-11.719,0.000,0
1602092590.311,-3.906,-32.227,-26.367,-19.531,0.000,0
1602092590.315,9.277,-25.879,-24.414,-35.156,0.000,0
1602092590.319,31.738,-23.926,-20.508,-32.227,0.000,0
1602092590.323,14.648,-26.367,-22.949,-21.484,0.000,0
1602092590.327,13.672,-24.414,-28.320,-30.273,0.000,0
1602092590.330,24.902,-26.367,-29.297,-33.691,0.000,0
1602092590.334,14.648,-28.320,-22.949,-33.203,0.000,0
1602092590.338,14.648,-25.879,-21.484,-25.879,0.000,0
1602092590.342,-1.953,-26.367,-21.484,-15.137,0.000,0
1602092590.346,-2.930,-28.320,-20.508,-15.137,0.000,0
1602092590.350,10.742,-26.855,-23.438,-19.043,0.000,0
1602092590.354,4.883,-29.297,-20.508,-22.461,0.000,0
1602092590.358,1.953,-30.762,-22.949,-21.484,0.000,0
1602092590.362,4.395,-27.344,-24.414,-26.855,0.000,0
1602092590.366,2.441,-25.879,-22.949,-32.715,0.000,0
1602092590.370,13.184,-27.832,-21.973,-21.973,0.000,0
1602092590.373,16.113,-31.250,-20.508,-12.695,0.000,0
1602092590.377,6.348,-32.715,-27.344,-26.367,0.000,0
1602092590.381,-5.859,-28.320,-26.855,-26.855,0.000,0
1602092590.385,4.395,-31.250,-23.926,-18.066,0.000,0
1602092590.389,10.742,-29.785,-27.344,-25.391,0.000,0
1602092590.393,-6.836,-28.320,-27.832,-29.785,0.000,0
1602092590.397,-3.906,-26.855,-29.785,-28.809,0.000,0
1602092590.401,-1.465,-27.344,-29.785,-31.250,0.000,0
1602092590.405,-14.648,-33.203,-26.367,-32.227,0.000,0
1602092590.409,-5.859,-29.785,-24.414,-30.762,0.000,0
1602092590.413,8.301,-32.227,-24.902,-32.227,0.000,0
1602092590.416,-7.812,-30.273,-25.391,-38.086,0.000,0
1602092590.420,-3.906,-24.414,-25.879,-33.203,0.000,0
1602092590.424,18.555,-28.320,-28.809,-21.484,0.000,0
1602092590.428,27.832,-27.832,-28.809,-15.625,0.000,0
1602092590.432,20.020,-24.414,-22.461,-31.250,0.000,0
1602092590.436,-23.438,-27.832,-18.555,-52.734,0.000,0
1602092590.440,-50.293,-30.273,-19.531,-37.598,0.000,0
1602092590.444,-24.902,-26.367,-19.531,-20.508,0.000,0
1602092590.448,-18.066,-30.273,-19.043,-27.832,0.000,0
1602092590.452,-27.344,-30.273,-21.973,-26.855,0.000,0
1602092590.455,-15.137,-25.879,-24.902,-37.598,0.000,0
1602092590.459,-8.789,-28.320,-23.926,-50.781,0.000,0
1602092590.463,-6.348,-27.344,-25.879,-45.898,0.000,0
1602092590.467,-1.953,-23.926,-27.344,-34.180,0.000,0
1602092590.471,4.883,-24.414,-25.391,-29.785,0.000,0
1602092590.475,8.789,-24.414,-27.344,-30.273,0.000,0
1602092590.479,-18.066,-26.855,-28.809,-22.461,0.000,0
1602092590.483,-14.648,-24.902,-27.832,-26.855,0.000,0
1602092590.487,1.953,-25.391,-29.785,-30.273,0.000,0
1602092590.491,11.719,-24.902,-34.668,-24.414,0.000,0
1602092590.495,16.602,-20.020,-32.227,-24.902,0.000,0
1602092590.498,5.371,-23.438,-28.809,-29.785,0.000,0
1602092590.502,5.859,-21.484,-25.391,-20.020,0.000,0
1602092590.506,13.672,-18.066,-20.020,-11.230,0.000,0
1602092590.510,16.602,-24.902,-20.020,-15.137,0.000,0
1602092590.514,4.883,-27.832,-20.996,-27.832,0.000,0
1602092590.518,-16.602,-25.391,-20.508,-34.180,0.000,0
1602092590.522,-13.672,-26.855,-20.020,-26.855,0.000,0
1602092590.526,0.000,-22.949,-23.438,-23.926,0.000,0
1602092590.530,16.113,-21.484,-19.531,-17.578,0.000,0
1602092590.534,13.184,-20.508,-17.578,-25.879,0.000,0
1602092590.538,-11.230,-18.066,-24.902,-38.574,0.000,0
1602092590.541,-15.625,-22.461,-23.438,-31.250,0.000,0
1602092590.545,3.418,-25.879,-18.555,-21.484,0.000,0
1602092590.549,6.348,-24.902,-16.602,-24.414,0.000,0
1602092590.553,-19.043,-28.320,-19.043,-31.250,0.000,0
1602092590.557,-25.391,-27.344,-19.531,-27.344,0.000,0
1602092590.561,-11.230,-28.320,-18.555,-29.785,0.000,0
1602092590.565,3.906,-30.762,-17.578,-20.508,0.000,0
1602092590.569,0.488,-26.855,-20.020,-15.625,0.000,0
1602092590.573,-6.836,-30.273,-22.461,-19.531,0.000,0
1602092590.577,-9.277,-34.180,-23.438,-24.414,0.000,0
1602092590.580,-12.695,-31.738,-25.391,-29.297,0.000,0
1602092590.584,4.395,-28.809,-19.043,-23.438,0.000,0
1602092590.588,15.625,-33.203,-19.043,-21.973,0.000,0
1602092590.592,-8.301,-34.668,-24.414,-21.973,0.000,0
1602092590.596,-18.555,-34.668,-21.484,-26.855,0.000,0
1602092590.600,-13.184,-31.738,-19.043,-22.949,0.000,0
1602092590.604,3.906,-23.926,-20.508,-9.277,0.000,0
1602092590.608,15.625,-21.484,-22.461,-16.602,0.000,0
1602092590.612,-2.930,-22.949,-28.320,-20.508,0.000,0
1602092590.616,-2.441,-23.926,-26.855,-19.531,0.000,0
1602092590.620,6.348,-24.414,-26.855,-16.602,0.000,0
1602092590.623,-6.348,-28.320,-31.738,-13.672,0.000,0
1602092590.627,-7.812,-26.367,-30.273,-13.184,0.000,0
1602092590.631,3.906,-19.531,-24.414,-9.766,0.000,0
1602092590.635,9.277,-17.090,-21.973,-14.160,0.000,0
1602092590.639,0.977,-14.648,-24.902,-24.902,0.000,0
1602092590.643,-7.812,-19.531,-24.902,-26.367,0.000,0
1602092590.647,-6.836,-19.531,-23.438,-20.020,0.000,0
1602092590.651,-14.160,-18.555,-25.879,-26.855,0.000,0
1602092590.655,-20.996,-25.391,-25.879,-34.668,0.000,0
1602092590.659,-24.902,-20.020,-27.832,-35.645,0.000,0
1602092590.663,-6.348,-17.578,-29.297,-30.762,0.000,0
1602092590.666,-2.441,-23.438,-24.414,-22.949,0.000,0
1602092590.670,-20.020,-23.438,-22.949,-29.785,0.000,0
1602092590.674,-19.531,-22.461,-25.391,-35.645,0.000,0
1602092590.678,-17.578,-24.414,-22.949,-36.133,0.000,0
1602092590.682,-27.344,-22.949,-21.973,-39.551,0.000,0
1602092590.686,-23.438,-21.973,-20.996,-30.273,0.000,0
1602092590.690,-7.812,-23.926,-19.531,-25.879,0.000,0
1602092590.694,-12.207,-24.902,-21.484,-33.203,0.000,0
1602092590.698,-18.555,-25.879,-20.020,-37.598,0.000,0
1602092590.702,-15.625,-24.902,-19.043,-40.527,0.000,0
1602092590.705,-10.742,-24.902,-20.508,-32.715,0.000,0
1602092590.709,-20.020,-24.902,-20.508,-30.273,0.000,0
1602092590.713,-33.691,-22.949,-20.996,-44.434,0.000,2
1602092590.717,-34.180,-21.973,-20.508,-44.434,0.000,0
1602092590.721,-26.367,-23.926,-23.438,-30.762,0.000,0
1602092590.725,-20.996,-22.461,-20.508,-22.461,0.000,0
1602092590.729,-14.648,-18.066,-20.020,-22.461,0.000,0
1602092590.733,-1.953,-23.926,-20.996,-29.785,0.000,0
1602092590.737,-8.301,-28.809,-15.625,-29.785,0.000,0
1602092590.741,-27.832,-24.902,-11.230,-26.367,0.000,0
1602092590.745,-29.297,-22.461,-12.695,-24.414,0.000,0
1602092590.748,-21.973,-21.484,-15.137,-16.113,0.000,0
1602092590.752,-26.367,-23.926,-14.160,-26.367,0.000,0
1602092590.756,-19.531,-22.949,-14.648,-38.086,0.000,0
1602092590.760,-22.949,-21.484,-18.066,-42.969,0.000,0
1602092590.764,-47.852,-24.414,-20.020,-33.691,0.000,0
1602092590.768,-34.668,-26.367,-19.043,-25.879,0.000,0
1602092590.772,-7.324,-21.484,-17.090,-28.320,0.000,0
1602092590.776,-14.160,-20.508,-17.090,-27.832,0.000,0
1602092590.780,-22.461,-27.344,-19.043,-31.250,0.000,0
1602092590.784,-14.648,-26.855,-22.461,-32.227,0.000,0
1602092590.788,-15.625,-25.879,-21.484,-35.645,0.000,0
1602092590.791,-14.648,-23.438,-20.508,-27.832,0.000,0
1602092590.795,-6.836,-18.066,-21.484,-23.926,0.000,0
1602092590.799,-14.648,-18.066,-21.484,-31.250,0.000,0
1602092590.803,-22.949,-15.137,-15.137,-22.461,0.000,0
1602092590.807,-8.789,-13.672,-16.602,-23.438,0.000,0
1602092590.811,8.789,-17.090,-23.438,-23.438,0.000,0
1602092590.815,-8.789,-22.461,-25.879,-21.484,0.000,0
1602092590.819,-18.066,-23.926,-23.438,-38.086,0.000,0
1602092590.823,-0.977,-21.484,-20.996,-26.367,0.000,0
1602092590.827,-6.348,-20.020,-20.020,-10.742,0.000,0
1602092590.830,-22.949,-22.949,-27.344,-33.691,0.000,0
1602092590.834,-31.738,-27.344,-29.297,-41.992,0.000,0
1602092590.838,-31.738,-23.926,-21.973,-42.969,0.000,0
1602092590.842,-29.297,-22.461,-22.461,-38.574,0.000,0
1602092590.846,-14.648,-26.855,-20.996,-30.273,0.000,0
1602092590.850,1.953,-25.879,-20.996,-28.809,0.000,0
1602092590.854,-3.906,-24.902,-30.273,-30.762,0.000,0
1602092590.858,-21.484,-26.855,-32.227,-38.574,0.000,0
1602092590.862,-22.461,-21.484,-31.738,-42.480,0.000,0
1602092590.866,-20.508,-25.391,-31.738,-41.992,0.000,0
1602092590.870,-23.926,-29.785,-31.738,-43.945,0.000,0
1602092590.873,-19.043,-28.320,-33.203,-41.504,0.000,0
1602092590.877,-7.324,-30.762,-29.297,-44.922,0.000,0
1602092590.881,-31.738,-31.250,-24.902,-39.062,0.000,0
1602092590.885,-47.852,-30.273,-24.414,-32.227,0.000,0
1602092590.889,-31.250,-28.320,-22.461,-30.273,0.000,0
1602092590.893,-29.297,-29.297,-24.902,-34.180,0.000,0
1602092590.897,-34.668,-28.809,-20.508,-31.250,0.000,0
1602092590.901,-32.227,-27.832,-14.648,-24.902,0.000,0
1602092590.905,-30.762,-27.832,-21.484,-31.250,0.000,0
1602092590.909,-26.367,-25.879,-27.344,-30.273,0.000,0
1602092590.913,-20.996,-29.785,-26.855,-29.785,0.000,0
1602092590.916,-21.484,-26.855,-19.043,-39.062,0.000,0
1602092590.920,-27.344,-24.414,-16.113,-25.879,0.000,0
1602092590.924,-22.461,-27.344,-20.020,-9.766,0.000,0
1602092590.928,-22.949,-27.832,-22.461,-20.508,0.000,0
1602092590.932,-16.602,-28.809,-21.973,-27.344,0.000,0
1602092590.936,-20.020,-30.762,-21.973,-27.344,0.000,0
1602092590.940,-35.645,-30.273,-23.438,-21.484,0.000,0
1602092590.944,-36.621,-32.715,-23.926,-20.996,0.000,0
1602092590.948,-21.973,-33.203,-21.484,-11.719,0.000,0
1602092590.952,-12.207,-28.809,-20.996,-16.602,0.000,0
1602092590.955,-23.438,-25.879,-24.414,-37.109,0.000,0
1602092590.959,-25.879,-24.902,-22.461,-36.133,0.000,0
1602092590.963,-6.836,-28.809,-20.996,-26.855,0.000,0
1602092590.967,-2.441,-25.879,-25.391,-26.855,0.000,0
1602092590.971,-8.789,-19.043,-31.250,-27.832,0.000,0
1602092590.975,-20.020,-20.508,-31.738,-33.691,0.000,0
1602092590.979,-34.668,-22.461,-27.832,-37.598,0.000,0
1602092590.983,-47.363,-19.043,-29.785,-35.156,0.000,0
1602092590.987,-40.527,-19.531,-34.668,-34.668,0.000,0
1602092590.991,-39.551,-24.414,-36.133,-42.480,0.000,0
1602092590.995,-52.246,-25.391,-32.227,-51.758,0.000,0
1602092590.998,-57.617,-28.809,-27.832,-56.152,0.000,0
1602092591.002,-51.758,-30.762,-32.227,-43.457,0.000,0
1602092591.006,-32.715,-28.320,-32.715,-34.668,0.000,0
1602092591.010,-13.184,-26.855,-28.809,-33.203,0.000,0
1602092591.014,-9.277,-26.367,-25.391,-38.086,0.000,0
1602092591.018,-20.508,-27.832,-28.320,-46.387,0.000,0
1602092591.022,-41.504,-33.203,-30.762,-42.480,0.000,0
1602092591.026,-23.926,-30.273,-30.762,-38.574,0.000,0
1602092591.030,-14.648,-28.809,-28.809,-31.250,0.000,0
1602092591.034,-29.785,-32.715,-24.902,-32.715,0.000,0
1602092591.038,-30.273,-29.297,-24.414,-41.992,0.000,0
1602092591.041,-40.527,-30.273,-27.832,-35.645,0.000,0
1602092591.045,-35.645,-34.668,-27.344,-29.297,0.000,0
1602092591.049,-5.859,-32.227,-26.855,-40.039,0.000,0
1602092591.053,0.977,-28.320,-24.414,-46.875,0.000,0
1602092591.057,-17.090,-29.785,-21.973,-56.152,0.000,0
1602092591.061,-32.715,-30.762,-28.320,-58.105,0.000,0
1602092591.065,-23.926,-28.809,-27.344,-41.992,0.000,0
1602092591.069,-19.043,-30.273,-26.367,-39.062,0.000,0
1602092591.073,-17.090,-31.250,-24.414,-48.828,0.000,0
1602092591.077,-8.301,-28.809,-24.414,-51.758,0.000,0
1602092591.080,-31.738,-30.762,-28.809,-48.828,0.000,0
1602092591.084,-48.828,-34.668,-27.832,-42.480,0.000,0
1602092591.088,-27.832,-31.250,-24.414,-32.227,0.000,0
1602092591.092,-19.043,-30.273,-23.926,-30.273,0.000,0
1602092591.096,-16.602,-34.180,-31.738,-40.527,0.000,0
1602092591.100,-1.953,-31.738,-26.855,-38.086,0.000,0
1602092591.104,-19.531,-31.250,-19.043,-33.691,0.000,0
1602092591.108,-10.254,-30.273,-22.461,-38.574,0.000,0
1602092591.112,0.488,-26.367,-22.949,-41.016,0.000,0
1602092591.116,-30.762,-32.715,-24.902,-40.527,0.000,0
1602092591.120,-30.762,-31.250,-25.879,-30.273,0.000,0
1602092591.123,-11.719,-22.461,-21.484,-23.926,0.000,0
1602092591.127,-9.277,-25.879,-17.090,-21.484,0.000,0
1602092591.131,-10.254,-30.273,-18.555,-25.879,0.000,0
1602092591.135,-9.277,-29.297,-19.531,-36.621,0.000,0
1602092591.139,-6.836,-25.879,-14.648,-31.738,0.000,0
1602092591.143,-11.719,-26.367,-14.648,-36.133,0.000,0
1602092591.147,-18.555,-24.414,-17.090,-38.574,0.000,0
1602092591.151,-13.672,-16.602,-15.625,-31.250,0.000,0
1602092591.155,-13.672,-19.531,-13.672,-39.062,0.000,0
1602092591.159,-27.344,-24.414,-12.207,-41.992,0.000,0
1602092591.163,-28.809,-28.320,-14.648,-36.621,0.000,0
1602092591.166,-20.508,-28.809,-20.508,-38.086,0.000,0
1602092591.170,-23.438,-24.414,-23.438,-43.945,0.000,0
1602092591.174,-19.531,-22.949,-25.391,-50.293,0.000,0
1602092591.178,-28.320,-25.391,-20.996,-50.293,0.000,0
1602092591.182,-21.973,-25.879,-22.461,-38.086,0.000,0
1602092591.186,-1.465,-22.461,-25.391,-31.738,0.000,0
1602092591.190,-10.742,-24.414,-23.926,-33.203,0.000,0
1602092591.194,-19.043,-27.832,-21.973,-38.086,0.000,0
1602092591.198,-14.160,-23.438,-20.508,-46.387,0.000,0
1602092591.202,-7.812,-18.066,-19.043,-35.645,0.000,0
1602092591.205,4.883,-17.578,-16.113,-23.438,0.000,0
1602092591.209,7.812,-16.602,-12.695,-26.367,0.000,0
1602092591.213,-23.926,-17.578,-14.160,-25.879,0.000,0
1602092591.217,-28.809,-16.602,-18.066,-25.879,0.000,0
1602092591.221,-16.113,-16.113,-16.602,-20.508,0.000,0
1602092591.225,-13.672,-21.484,-18.066,-23.438,0.000,0
1602092591.229,-4.395,-20.996,-19.531,-20.996,0.000,0
1602092591.233,-8.789,-20.996,-21.484,-29.785,0.000,0
1602092591.237,-19.531,-23.438,-25.879,-45.410,0.000,0
1602092591.241,-26.367,-24.414,-25.391,-40.527,0.000,0
1602092591.245,-33.691,-26.855,-24.414,-28.809,0.000,0
1602092591.248,-25.391,-29.785,-23.926,-26.855,0.000,0
1602092591.252,-14.648,-30.762,-22.949,-21.484,0.000,0
1602092591.256,-17.578,-29.297,-24.414,-36.133,0.000,0
1602092591.260,-18.555,-26.367,-25.879,-44.922,0.000,0
1602092591.264,-28.809,-29.785,-29.785,-27.832,0.000,0
1602092591.268,-7.812,-28.320,-25.879,-28.809,0.000,0
1602092591.272,0.977,-22.949,-21.973,-29.785,0.000,0
1602092591.276,-22.461,-22.949,-21.973,-28.809,0.000,0
1602092591.280,-26.855,-21.973,-18.555,-41.992,0.000,0
1602092591.284,-34.180,-22.949,-24.414,-40.527,0.000,0
1602092591.288,-25.879,-20.996,-28.320,-27.832,0.000,0
1602092591.291,-14.160,-20.020,-20.508,-30.273,0.000,0
1602092591.295,-17.090,-20.996,-20.996,-36.621,0.000,0
1602092591.299,-19.531,-22.461,-22.949,-36.621,0.000,0
1602092591.303,-17.090,-24.414,-25.391,-34.668,0.000,0
1602092591.307,-3.906,-22.949,-29.297,-27.344,0.000,0
1602092591.311,-3.418,-22.461,-23.438,-27.344,0.000,0
1602092591.315,-13.672,-25.391,-19.531,-32.715,0.000,0
1602092591.319,-34.668,-28.809,-21.484,-34.668,0.000,0
1602092591.323,-34.180,-32.227,-18.555,-28.809,0.000,0
1602092591.327,-29.297,-32.227,-20.508,-30.762,0.000,0
1602092591.330,-19.043,-26.855,-27.344,-28.809,0.000,0
1602092591.334,-16.602,-24.414,-25.879,-31.738,0.000,0
1602092591.338,-18.066,-22.461,-22.461,-35.645,0.000,0
1602092591.342,-11.719,-26.367,-22.461,-36.133,0.000,0
1602092591.346,-6.836,-31.250,-22.461,-32.715,0.000,0
1602092591.350,-5.859,-26.855,-22.949,-30.762,0.000,0
1602092591.354,-12.207,-23.926,-18.555,-33.203,0.000,0
1602092591.358,-26.855,-23.438,-18.555,-40.039,0.000,0
1602092591.362,-25.391,-27.832,-25.391,-42.480,0.000,0
1602092591.366,5.371,-25.879,-24.414,-30.273,0.000,0
1602092591.370,4.883,-22.461,-21.973,-22.461,0.000,0
1602092591.373,-18.066,-26.855,-18.066,-30.273,0.000,0
1602092591.377,-10.742,-23.438,-13.184,-38.086,0.000,0
1602092591.381,1.953,-22.461,-18.066,-28.320,0.000,0
1602092591.385,-4.395,-23.438,-19.043,-11.230,0.000,0
1602092591.389,-11.719,-18.555,-17.090,-22.461,0.000,0
1602092591.393,-6.348,-25.391,-23.438,-36.133,0.000,0
1602092591.397,-18.555,-27.344,-26.855,-36.621,0.000,0
1602092591.401,-29.297,-27.832,-28.320,-41.992,0.000,0
1602092591.405,-9.277,-31.250,-24.902,-37.109,0.000,0
1602092591.409,-6.348,-33.203,-23.926,-32.715,0.000,0
1602092591.413,-23.438,-33.203,-24.902,-42.480,0.000,0
1602092591.416,-23.438,-34.180,-22.949,-47.363,0.000,0
1602092591.420,-23.438,-36.621,-22.461,-45.410,0.000,0
1602092591.424,-37.598,-35.156,-28.320,-39.062,0.000,0
1602092591.428,-29.297,-32.227,-34.180,-23.926,0.000,0
1602092591.432,-13.672,-34.668,-36.133,-25.879,0.000,0
1602092591.436,-28.809,-31.738,-34.180,-44.434,0.000,0
1602092591.440,-39.062,-32.227,-29.785,-41.016,0.000,0
1602092591.444,-23.926,-33.691,-24.414,-29.297,0.000,0
1602092591.448,-7.324,-28.320,-27.344,-23.926,0.000,0
1602092591.452,-4.883,-30.762,-27.344,-20.508,0.000,0
1602092591.455,-18.555,-32.715,-20.020,-19.531,0.000,0
1602092591.459,-33.691,-29.785,-22.461,-23.438,0.000,0
1602092591.463,-24.414,-32.227,-25.879,-24.902,0.000,0
1602092591.467,-9.277,-37.109,-28.320,-16.602,0.000,0
1602092591.471,-12.207,-35.156,-27.344,-11.230,0.000,0
1602092591.475,-22.949,-28.320,-25.879,-26.367,0.000,0
1602092591.479,-26.367,-26.855,-27.832,-41.016,0.000,0
1602092591.483,-28.809,-31.738,-30.273,-28.320,0.000,0
1602092591.487,-12.695,-33.203,-30.762,-26.855,0.000,0
1602092591.491,-7.812,-32.227,-29.297,-41.016,0.000,0
1602092591.495,-31.738,-30.762,-30.273,-47.363,0.000,0
1602092591.498,-34.180,-30.762,-33.203,-48.828,0.000,0
1602092591.502,-36.621,-35.156,-32.715,-50.293,0.000,0
1602092591.506,-42.969,-30.762,-33.691,-35.645,0.000,0
1602092591.510,-26.367,-28.809,-37.598,-31.738,0.000,0
1602092591.514,-23.438,-37.598,-34.668,-48.340,0.000,0
1602092591.518,-24.414,-34.668,-32.715,-41.016,0.000,0
1602092591.522,-22.949,-29.785,-31.738,-34.668,0.000,0
1602092591.526,-20.508,-30.273,-27.832,-30.762,0.000,0
1602092591.530,-8.301,-30.273,-24.902,-24.414,0.000,0
1602092591.534,-16.602,-31.250,-24.414,-33.691,0.000,0
1602092591.538,-22.461,-34.180,-24.902,-39.062,0.000,0
1602092591.541,-5.859,-29.297,-25.391,-22.461,0.000,0
1602092591.545,12.207,-26.855,-29.297,-20.996,0.000,0
1602092591.549,12.695,-30.273,-30.273,-35.645,0.000,0
1602092591.553,8.301,-25.391,-28.809,-33.691,0.000,0
1602092591.557,9.277,-21.484,-29.785,-31.738,0.000,0
1602092591.561,1.465,-27.832,-23.438,-42.480,0.000,0
1602092591.565,-11.230,-32.227,-23.926,-49.316,0.000,0
1602092591.569,7.324,-29.297,-31.738,-38.574,0.000,0
1602092591.573,27.832,-23.926,-30.273,-29.785,0.000,0
1602092591.577,6.348,-24.902,-27.344,-43.945,0.000,0
1602092591.580,3.418,-21.973,-24.902,-44.434,0.000,0
1602092591.584,15.137,-16.602,-15.625,-28.809,0.000,0
1602092591.588,23.926,-20.020,-19.043,-26.367,0.000,0
1602092591.592,34.180,-20.508,-27.344,-22.461,0.000,0
1602092591.596,15.625,-21.973,-26.855,-31.738,0.000,0
1602092591.600,-0.977,-26.367,-27.832,-41.016,0.000,0
1602092591.604,1.465,-19.531,-25.879,-36.133,0.000,0
1602092591.608,4.395,-17.090,-23.926,-33.203,0.000,0
1602092591.612,14.648,-20.508,-25.391,-35.645,0.000,0
1602092591.616,20.996,-21.973,-26.367,-42.969,0.000,0
1602092591.620,20.508,-22.461,-24.902,-43.945,0.000,0
1602092591.623,25.879,-21.484,-20.508,-34.668,0.000,0
1602092591.627,9.277,-20.508,-19.043,-33.203,0.000,0
1602092591.631,4.883,-22.949,-19.043,-41.016,0.000,0
1602092591.635,13.672,-26.367,-13.184,-46.387,0.000,0
1602092591.639,0.488,-24.414,-11.230,-41.504,0.000,0
1602092591.643,-0.488,-23.926,-17.090,-36.621,0.000,0
1602092591.647,22.949,-31.250,-23.438,-28.320,0.000,0
1602092591.651,20.508,-32.715,-22.461,-25.879,0.000,0
1602092591.655,-0.977,-36.133,-21.973,-42.480,0.000,0
1602092591.659,-1.465,-36.133,-21.973,-48.828,0.000,0
1602092591.663,6.836,-32.715,-20.508,-31.250,0.000,0
1602092591.666,11.719,-35.156,-20.020,-25.879,0.000,0
1602092591.670,12.207,-33.691,-19.531,-35.645,0.000,0
1602092591.674,8.789,-31.250,-18.066,-37.598,0.000,0
1602092591.678,6.836,-32.227,-23.438,-40.527,0.000,0
1602092591.682,9.277,-33.203,-26.855,-36.621,0.000,0
1602092591.686,6.348,-32.227,-21.484,-27.344,0.000,0
1602092591.690,-2.930,-29.785,-25.391,-28.320,0.000,0
1602092591.694,-7.324,-29.785,-31.250,-33.203,0.000,0
1602092591.698,-15.137,-32.227,-33.691,-39.551,0.000,0
1602092591.702,-20.508,-28.809,-33.691,-47.363,0.000,0
1602092591.705,-13.184,-30.273,-32.715,-48.340,0.000,0
1602092591.709,-9.766,-30.273,-31.738,-47.852,0.000,0
1602092591.713,2.441,-29.297,-30.762,-48.828,0.000,0
1602092591.717,-0.977,-32.227,-30.273,-53.223,0.000,0
1602092591.721,-25.879,-27.344,-28.320,-55.664,0.000,0
1602092591.725,-15.625,-25.391,-26.855,-34.668,0.000,0
1602092591.729,1.953,-23.438,-25.879,-34.180,0.000,0
1602092591.733,-18.555,-24.902,-29.297,-48.828,0.000,0
1602092591.737,-35.645,-31.738,-30.762,-50.293,0.000,0
1602092591.741,-30.273,-27.832,-28.320,-44.922,0.000,0
1602092591.745,-33.691,-26.855,-25.879,-46.387,0.000,0
1602092591.748,-23.438,-28.809,-24.414,-48.340,0.000,0
1602092591.752,-21.484,-25.391,-25.391,-47.852,0.000,0
1602092591.756,-35.645,-24.902,-27.344,-56.641,0.000,0
1602092591.760,-32.227,-25.879,-25.879,-52.734,0.000,0
1602092591.764,-26.367,-27.832,-21.484,-36.133,0.000,0
1602092591.768,-22.461,-31.738,-16.602,-25.391,0.000,0
1602092591.772,-34.180,-30.273,-18.066,-36.133,0.000,0
1602092591.776,-52.734,-23.438,-24.902,-53.223,0.000,1
1602092591.780,-52.246,-26.367,-21.973,-53.223,0.000,0
1602092591.784,-48.340,-22.949,-18.066,-58.594,0.000,0
1602092591.788,-32.227,-23.926,-20.508,-56.641,0.000,0
1602092591.791,-19.531,-27.344,-20.508,-40.039,0.000,0
1602092591.795,-24.902,-20.996,-17.090,-45.898,0.000,0
1602092591.799,-22.949,-20.508,-18.555,-49.316,0.000,0
1602092591.803,-14.160,-20.020,-22.461,-35.156,0.000,0
1602092591.807,-23.926,-19.531,-22.949,-30.762,0.000,0
1602092591.811,-29.297,-21.484,-16.602,-32.715,0.000,0
1602092591.815,-27.344,-18.555,-13.672,-39.062,0.000,0
1602092591.819,-25.391,-7.812,-6.836,-37.598,0.000,0
1602092591.823,-32.715,-5.371,-3.418,-25.391,0.000,0
1602092591.827,-42.480,-19.531,-24.902,-37.109,0.000,0
1602092591.830,-51.270,-30.273,-33.691,-56.641,0.000,0
1602092591.834,-55.664,-26.855,-23.926,-62.012,0.000,0
1602092591.838,-44.434,-12.207,-10.742,-60.059,0.000,0
1602092591.842,-61.035,-6.836,-12.207,-69.824,0.000,0
1602092591.846,-86.426,-17.090,-13.672,-85.449,0.000,0
1602092591.850,-85.449,-21.973,-15.137,-91.797,0.000,0
1602092591.854,-91.309,-17.090,-15.625,-100.586,0.000,0
1602092591.858,-96.680,-10.254,-9.277,-110.352,0.000,0
1602092591.862,-100.098,-4.883,-6.836,-115.723,0.000,0
1602092591.866,-104.492,4.883,-7.812,-119.629,0.000,0
1602092591.870,-105.469,6.348,-12.695,-132.812,0.000,0
1602092591.873,-137.207,-3.418,-8.301,-155.273,0.000,0
1602092591.877,-131.348,-3.418,1.465,-146.973,0.000,0
1602092591.881,-110.840,6.836,5.859,-131.348,0.000,0
1602092591.885,-124.023,11.719,6.836,-142.578,0.000,0
1602092591.889,-113.770,-4.395,0.000,-145.508,0.000,0
1602092591.893,-115.723,-9.766,-11.230,-155.273,0.000,0
1602092591.897,-123.535,1.953,-8.301,-166.016,0.000,0
1602092591.901,-124.512,7.324,4.395,-166.016,0.000,0
1602092591.905,-136.719,3.906,7.812,-177.246,0.000,0
1602092591.909,-151.855,-0.977,3.418,-183.105,0.000,0
1602092591.913,-156.250,-2.930,1.953,-192.871,0.000,0
1602092591.916,-166.504,-6.348,-2.441,-213.379,0.000,0
1602092591.920,-171.387,-7.812,-4.395,-213.379,0.000,0
1602092591.924,-149.902,-0.977,0.977,-196.289,0.000,0
1602092591.928,-152.344,1.465,-1.953,-193.848,0.000,0
1602092591.932,-156.738,-4.883,-2.930,-195.801,0.000,0
1602092591.936,-152.344,-2.441,-0.488,-196.777,0.000,0
1602092591.940,-152.832,-1.465,-0.977,-178.711,0.000,0
1602092591.944,-131.348,-5.859,-1.465,-147.461,0.000,0
1602092591.948,-112.793,-6.836,-6.348,-143.066,0.000,0
1602092591.952,-99.609,-11.230,-9.766,-134.277,0.000,0
1602092591.955,-90.332,-15.137,-17.090,-129.883,0.000,0
1602092591.959,-98.145,-18.555,-17.578,-127.441,0.000,0
1602092591.963,-92.773,-18.066,-17.578,-122.070,0.000,0
1602092591.967,-64.453,-15.625,-22.949,-104.492,0.000,0
1602092591.971,-46.875,-13.184,-19.043,-90.332,0.000,0
1602092591.975,-49.316,-17.090,-20.020,-102.539,0.000,0
1602092591.979,-46.875,-23.926,-26.855,-97.656,0.000,0
1602092591.983,-40.039,-24.902,-31.738,-80.566,0.000,0
1602092591.987,-38.574,-25.879,-29.785,-76.660,0.000,0
1602092591.991,-33.203,-27.832,-28.809,-72.266,0.000,0
1602092591.995,-34.668,-24.414,-31.250,-67.871,0.000,0
1602092591.998,-38.574,-21.484,-26.367,-61.035,0.000,0
1602092592.002,-31.738,-23.926,-22.461,-44.434,0.000,0
1602092592.006,-19.043,-28.320,-20.996,-26.855,0.000,0
1602092592.010,-8.789,-29.297,-22.949,-29.297,0.000,0
1602092592.014,4.395,-23.438,-27.344,-27.832,0.000,0
1602092592.018,13.184,-20.020,-23.926,-18.555,0.000,0
1602092592.022,12.207,-22.461,-23.438,-13.672,0.000,0
1602092592.026,4.395,-24.902,-26.367,-13.672,0.000,0
1602092592.030,10.742,-23.926,-23.438,-4.883,0.000,0
1602092592.034,20.996,-21.973,-20.996,-3.906,0.000,0
1602092592.038,20.020,-21.484,-23.438,-14.648,0.000,0
1602092592.041,0.488,-25.879,-24.902,-5.859,0.000,0
1602092592.045,3.418,-27.344,-23.926,4.395,0.000,0
1602092592.049,35.645,-21.484,-23.926,9.277,0.000,0
1602092592.053,39.062,-19.531,-21.484,12.695,0.000,0
1602092592.057,27.344,-21.484,-23.926,9.766,0.000,0
1602092592.061,38.086,-20.020,-28.320,16.113,0.000,0
1602092592.065,45.898,-22.461,-20.996,26.855,0.000,0
1602092592.069,48.340,-23.438,-20.508,26.855,0.000,0
1602092592.073,53.711,-20.020,-24.902,22.461,0.000,0
1602092592.077,41.016,-23.438,-26.367,19.043,0.000,0
1602092592.080,33.203,-26.855,-27.344,6.836,0.000,0
1602092592.084,38.574,-27.344,-23.926,8.789,0.000,0
1602092592.088,41.992,-28.320,-22.949,19.043,0.000,0
1602092592.092,37.109,-27.832,-27.832,18.555,0.000,0
1602092592.096,27.344,-30.762,-30.762,-0.488,0.000,0
1602092592.100,30.762,-30.762,-31.738,4.395,0.000,0
1602092592.104,40.039,-30.762,-27.832,19.531,0.000,0
1602092592.108,44.434,-31.250,-25.879,21.973,0.000,0
1602092592.112,51.758,-27.344,-25.391,28.320,0.000,0
1602092592.116,57.129,-30.762,-25.879,16.602,0.000,0
1602092592.120,45.898,-31.738,-26.367,10.254,0.000,0
1602092592.123,46.875,-26.855,-25.391,24.902,0.000,0
1602092592.127,46.875,-29.785,-27.344,31.738,0.000,0
1602092592.131,38.086,-34.668,-30.762,20.996,0.000,0
1602092592.135,33.203,-35.156,-30.273,7.324,0.000,0
1602092592.139,23.438,-32.715,-25.391,9.766,0.000,0
1602092592.143,24.414,-34.180,-27.344,17.578,0.000,0
1602092592.147,41.992,-37.109,-27.344,16.602,0.000,0
1602092592.151,56.152,-36.621,-20.996,12.695,0.000,0
1602092592.155,30.273,-32.715,-23.926,6.348,0.000,0
1602092592.159,20.020,-34.668,-24.902,-5.859,0.000,0
1602092592.163,23.926,-35.156,-28.320,-11.719,0.000,0
1602092592.166,27.344,-33.203,-27.344,-0.977,0.000,0
1602092592.170,44.434,-28.320,-22.461,3.906,0.000,0
1602092592.174,37.109,-26.855,-23.926,-2.930,0.000,0
1602092592.178,25.391,-34.668,-26.367,-6.836,0.000,0
1602092592.182,26.367,-34.180,-26.855,-4.395,0.000,0
1602092592.186,18.066,-32.715,-26.855,-5.371,0.000,0
1602092592.190,12.695,-31.250,-29.297,-1.953,0.000,0
1602092592.194,20.508,-31.250,-30.273,-4.395,0.000,0
1602092592.198,18.066,-35.156,-31.250,-3.418,0.000,0
1602092592.202,18.555,-34.668,-31.250,2.930,0.000,0
1602092592.205,36.621,-33.691,-26.367,10.742,0.000,0
1602092592.209,38.574,-36.133,-25.391,13.672,0.000,0
1602092592.213,27.344,-36.621,-24.902,12.207,0.000,0
1602092592.217,19.043,-35.156,-25.391,0.977,0.000,0
1602092592.221,21.973,-36.621,-25.391,2.441,0.000,0
1602092592.225,24.902,-36.133,-25.391,7.324,0.000,0
1602092592.229,24.414,-33.691,-27.344,0.488,0.000,0
1602092592.233,27.832,-30.762,-24.414,-1.953,0.000,0
1602092592.237,33.691,-30.762,-22.949,-8.789,0.000,0
1602092592.241,12.695,-31.250,-27.344,-5.859,0.000,0
1602092592.245,4.883,-30.762,-26.855,1.465,0.000,0
1602092592.248,20.508,-30.273,-24.902,0.977,0.000,0
1602092592.252,13.184,-27.344,-23.438,0.977,0.000,0
1602092592.256,13.184,-27.344,-23.438,-0.977,0.000,0
1602092592.260,19.531,-30.762,-21.973,-2.441,0.000,0
1602092592.264,9.766,-32.227,-20.508,-3.906,0.000,0
1602092592.268,9.766,-32.227,-25.391,-7.812,0.000,0
1602092592.272,7.324,-33.203,-27.344,-14.160,0.000,0
1602092592.276,-6.836,-32.715,-20.996,-12.695,0.000,0
1602092592.280,-8.301,-32.715,-18.555,-8.789,0.000,0
1602092592.284,5.859,-32.715,-22.461,-3.906,0.000,0
1602092592.288,13.672,-28.809,-26.367,1.953,0.000,0
1602092592.291,10.254,-25.391,-26.367,0.000,0.000,0
1602092592.295,2.441,-26.855,-24.902,-13.184,0.000,0
1602092592.299,-3.906,-23.926,-26.367,-12.207,0.000,0
1602092592.303,-3.906,-23.926,-23.926,-4.395,0.000,0
1602092592.307,14.648,-21.973,-22.461,-12.695,0.000,0
1602092592.311,9.277,-17.578,-26.367,-9.277,0.000,0
1602092592.315,-8.301,-22.461,-26.367,-14.160,0.000,0
1602092592.319,1.465,-25.879,-23.926,-18.066,0.000,0
1602092592.323,2.930,-20.996,-22.461,-10.742,0.000,0
1602092592.327,1.465,-20.508,-22.461,-11.230,0.000,0
1602092592.330,5.371,-24.414,-22.949,-6.836,0.000,0
1602092592.334,-1.465,-20.020,-22.461,-12.695,0.000,0
1602092592.338,-3.418,-20.508,-22.949,-28.320,0.000,0
1602092592.342,-1.953,-27.344,-27.344,-23.438,0.000,0
1602092592.346,-9.277,-28.320,-31.250,-9.766,0.000,0
1602092592.350,0.977,-22.461,-32.715,-21.973,0.000,0
1602092592.354,6.836,-21.973,-33.203,-31.738,0.000,0
1602092592.358,-12.207,-22.461,-27.832,-31.250,0.000,0
1602092592.362,-14.160,-25.391,-28.320,-28.809,0.000,0
1602092592.366,-3.906,-29.785,-29.785,-23.926,0.000,0
1602092592.370,-3.906,-28.320,-28.809,-30.273,0.000,0
1602092592.373,-4.883,-28.320,-27.344,-38.574,0.000,0
1602092592.377,-8.789,-30.273,-27.344,-34.180,0.000,0
1602092592.381,-6.348,-30.762,-27.344,-21.973,0.000,0
1602092592.385,-5.371,-30.762,-25.879,-9.277,0.000,0
1602092592.389,-10.254,-31.738,-24.414,-17.578,0.000,0
1602092592.393,-1.465,-31.250,-25.879,-28.809,0.000,0
1602092592.397,-8.789,-34.180,-29.785,-34.180,0.000,0
1602092592.401,-10.254,-34.668,-28.809,-31.738,0.000,0
1602092592.405,-2.930,-31.250,-27.344,-19.043,0.000,0
1602092592.409,0.000,-30.762,-28.320,-12.695,0.000,0
1602092592.413,-13.672,-31.738,-26.367,-24.414,0.000,0
1602092592.416,-10.742,-31.250,-27.832,-24.414,0.000,0
1602092592.420,-10.254,-32.715,-30.273,-19.531,0.000,0
1602092592.424,-10.742,-33.691,-25.391,-23.438,0.000,0
1602092592.428,-0.977,-30.762,-25.879,-20.996,0.000,0
1602092592.432,-5.371,-31.250,-26.367,-12.207,0.000,0
1602092592.436,-8.789,-30.762,-21.973,-16.602,0.000,0
1602092592.440,-8.789,-25.391,-20.020,-19.043,0.000,0
1602092592.444,-13.672,-29.297,-20.020,-14.160,0.000,0
1602092592.448,-14.160,-32.227,-27.344,-14.648,0.000,0
1602092592.452,-15.137,-31.250,-28.320,-17.578,0.000,0
1602092592.455,-25.879,-35.156,-26.367,-36.133,0.000,0
1602092592.459,-25.879,-33.203,-26.855,-34.180,0.000,0
1602092592.463,-15.137,-33.203,-33.203,-19.531,0.000,0
1602092592.467,-26.367,-30.273,-32.227,-22.461,0.000,0
1602092592.471,-20.020,-30.273,-27.832,-24.902,0.000,0
1602092592.475,-12.207,-33.691,-30.273,-27.344,0.000,0
1602092592.479,-31.738,-33.691,-30.273,-31.738,0.000,0
1602092592.483,-32.227,-32.715,-29.785,-26.367,0.000,0
1602092592.487,-31.250,-35.156,-32.227,-25.879,0.000,0
1602092592.491,-12.207,-32.227,-34.668,-29.297,0.000,0
1602092592.495,-2.441,-29.297,-35.156,-25.879,0.000,0
1602092592.498,-23.438,-25.879,-33.203,-27.344,0.000,0
1602092592.502,-17.090,-22.461,-29.785,-29.297,0.000,0
1602092592.506,-6.348,-25.391,-29.297,-21.484,0.000,0
1602092592.510,-4.395,-27.832,-29.785,-19.043,0.000,0
1602092592.514,-4.395,-27.832,-28.320,-21.973,0.000,0
1602092592.518,-10.742,-30.273,-25.391,-19.531,0.000,0
1602092592.522,-11.230,-27.344,-22.949,-15.137,0.000,0
1602092592.526,-10.254,-24.414,-21.973,-19.043,0.000,0
1602092592.530,-2.441,-24.414,-23.438,-18.066,0.000,0
1602092592.534,13.184,-19.531,-24.414,-14.160,0.000,0
1602092592.538,9.766,-15.137,-26.367,-26.367,0.000,0
1602092592.541,-20.996,-20.020,-22.461,-33.203,0.000,0
1602092592.545,-18.555,-26.367,-20.020,-33.691,0.000,0
1602092592.549,-0.977,-22.949,-25.879,-33.691,0.000,0
1602092592.553,0.488,-18.555,-27.344,-32.227,0.000,0
1602092592.557,-3.906,-21.973,-18.066,-29.297,0.000,0
1602092592.561,-8.301,-25.391,-14.648,-25.391,0.000,0
1602092592.565,-11.230,-23.926,-22.461,-22.949,0.000,0
1602092592.569,8.301,-23.438,-17.578,-16.602,0.000,0
1602092592.573,22.949,-23.438,-14.648,-20.020,0.000,0
1602092592.577,7.812,-22.949,-20.508,-26.367,0.000,0
1602092592.580,-0.977,-24.414,-20.508,-34.668,0.000,0
1602092592.584,-9.766,-25.879,-20.996,-37.598,0.000,0
1602092592.588,-11.230,-24.902,-20.508,-26.367,0.000,0
1602092592.592,-14.648,-26.367,-19.043,-16.602,0.000,0
1602092592.596,-25.879,-26.855,-21.484,-26.855,0.000,0
1602092592.600,-24.414,-30.273,-19.531,-32.227,0.000,0
1602092592.604,-24.414,-32.715,-21.484,-24.902,0.000,0
1602092592.608,-19.043,-32.227,-19.043,-21.973,0.000,0
1602092592.612,-13.672,-32.227,-16.602,-24.414,0.000,0
1602092592.616,-10.742,-25.879,-17.578,-36.133,0.000,0
1602092592.620,-18.066,-25.391,-21.484,-39.551,0.000,0
1602092592.623,-18.555,-29.297,-22.461,-32.715,0.000,0
1602092592.627,-3.906,-26.855,-19.531,-25.391,0.000,0
1602092592.631,-10.254,-22.949,-20.996,-26.855,0.000,0
1602092592.635,-9.277,-23.926,-22.949,-44.434,0.000,0
1602092592.639,-11.719,-25.391,-19.531,-48.340,0.000,0
1602092592.643,-14.648,-25.391,-15.625,-32.227,0.000,0
1602092592.647,-9.277,-26.855,-15.137,-27.344,0.000,0
1602092592.651,-7.812,-31.738,-16.602,-30.762,0.000,0
1602092592.655,-5.859,-30.762,-20.508,-38.086,0.000,0
1602092592.659,-9.277,-26.367,-25.391,-44.434,0.000,0
1602092592.663,-13.184,-35.156,-27.832,-41.504,0.000,0
1602092592.666,-12.695,-35.645,-29.297,-42.969,0.000,0
1602092592.670,6.348,-23.926,-27.344,-32.715,0.000,0
1602092592.674,11.719,-21.973,-26.367,-35.156,0.000,0
1602092592.678,-7.812,-23.926,-24.902,-43.945,0.000,0
1602092592.682,-6.836,-25.391,-22.461,-30.273,0.000,0
1602092592.686,-5.371,-25.879,-21.973,-29.785,0.000,0
1602092592.690,-6.836,-20.996,-19.531,-25.391,0.000,0
1602092592.694,0.977,-23.926,-21.973,-21.973,0.000,0
1602092592.698,5.371,-23.926,-27.344,-34.180,0.000,0
1602092592.702,-7.324,-22.949,-26.855,-30.273,0.000,0
1602092592.705,-17.578,-27.832,-24.414,-22.461,0.000,0
1602092592.709,-11.719,-26.855,-20.996,-25.879,0.000,0
1602092592.713,-15.625,-27.832,-20.508,-28.809,0.000,0
1602092592.717,-27.832,-32.227,-25.879,-32.715,0.000,0
1602092592.721,-27.832,-33.691,-27.832,-37.109,0.000,0
1602092592.725,-21.484,-33.691,-23.438,-36.133,0.000,0
1602092592.729,-14.648,-37.109,-25.391,-28.809,0.000,0
1602092592.733,-21.973,-38.574,-28.809,-29.297,0.000,0
1602092592.737,-31.250,-35.156,-25.391,-35.645,0.000,0
1602092592.741,-27.832,-32.715,-27.344,-30.273,0.000,0
1602092592.745,-15.137,-33.203,-30.273,-33.203,0.000,0
1602092592.748,-7.324,-32.715,-30.273,-28.809,0.000,0
1602092592.752,-7.812,-29.297,-30.273,-22.949,0.000,0
1602092592.756,3.418,-22.949,-27.344,-31.250,0.000,0
1602092592.760,10.254,-23.926,-18.555,-23.926,0.000,0
1602092592.764,-0.977,-27.832,-20.020,-17.578,0.000,0
1602092592.768,-9.766,-26.367,-23.438,-15.137,0.000,0
1602092592.772,-9.766,-28.809,-24.902,-15.137,0.000,0
1602092592.776,-19.043,-27.344,-21.973,-34.180,0.000,0
1602092592.780,-11.719,-26.367,-22.461,-39.062,0.000,0
1602092592.784,-1.953,-29.297,-24.414,-18.555,0.000,0
1602092592.788,-10.742,-30.762,-22.949,-14.160,0.000,0
1602092592.791,-13.184,-29.297,-21.973,-22.949,0.000,0
1602092592.795,-13.184,-28.809,-25.391,-25.879,0.000,0
1602092592.799,-14.160,-32.715,-29.297,-33.203,0.000,0
1602092592.803,-3.906,-34.180,-25.391,-29.785,0.000,0
1602092592.807,-2.441,-30.273,-18.066,-13.672,0.000,0
1602092592.811,-0.977,-30.273,-15.625,-20.508,0.000,0
1602092592.815,-3.418,-32.227,-19.043,-30.273,0.000,0
1602092592.819,-28.809,-32.715,-21.973,-29.785,0.000,0
1602092592.823,-38.574,-36.621,-21.973,-27.832,0.000,0
1602092592.827,-21.484,-33.691,-23.926,-23.438,0.000,0
1602092592.830,-9.766,-28.320,-23.438,-12.695,0.000,0
1602092592.834,-13.672,-23.438,-21.973,-15.625,0.000,0
1602092592.838,-12.207,-28.320,-21.973,-22.461,0.000,0
1602092592.842,-25.391,-33.203,-17.578,-21.973,0.000,0
1602092592.846,-41.992,-29.297,-17.578,-23.926,0.000,0
1602092592.850,-32.227,-30.762,-22.461,-30.273,0.000,0
1602092592.854,-28.809,-33.203,-21.484,-31.738,0.000,0
1602092592.858,-37.598,-32.715,-20.508,-35.645,0.000,0
1602092592.862,-30.273,-29.297,-22.461,-38.086,0.000,0
1602092592.866,-12.207,-27.344,-22.461,-25.879,0.000,1
1602092592.870,-10.254,-28.809,-21.973,-25.879,0.000,0
1602092592.873,-5.859,-25.879,-20.996,-39.062,0.000,0
1602092592.877,-5.371,-23.926,-22.949,-30.273,0.000,0
1602092592.881,-12.207,-25.391,-22.461,-33.691,0.000,0
1602092592.885,-19.043,-25.391,-23.926,-45.410,0.000,0
1602092592.889,-6.836,-26.855,-27.832,-31.250,0.000,0
1602092592.893,8.789,-26.367,-22.949,-22.949,0.000,0
1602092592.897,-1.953,-22.461,-20.508,-39.062,0.000,0
1602092592.901,-4.883,-19.531,-26.367,-33.203,0.000,0
1602092592.905,-6.836,-22.461,-26.367,-16.602,0.000,0
1602092592.909,11.719,-21.484,-19.043,-14.160,0.000,0
1602092592.913,18.555,-19.531,-18.066,-21.484,0.000,0
1602092592.916,-7.812,-20.020,-16.602,-28.809,0.000,0
1602092592.920,-15.625,-23.438,-12.695,-30.273,0.000,0
1602092592.924,-10.254,-28.809,-16.113,-20.020,0.000,0
1602092592.928,-0.488,-25.391,-16.113,-13.672,0.000,0
1602092592.932,7.324,-22.461,-18.555,-24.902,0.000,0
1602092592.936,-0.488,-22.461,-19.531,-31.738,0.000,0
1602092592.940,-12.207,-24.414,-19.043,-28.320,0.000,0
1602092592.944,-6.348,-28.809,-20.996,-25.879,0.000,0
1602092592.948,0.000,-27.344,-23.438,-34.180,0.000,0
1602092592.952,-7.812,-27.832,-23.926,-33.203,0.000,0
1602092592.955,-7.812,-28.809,-23.926,-32.715,0.000,0
1602092592.959,-11.719,-28.809,-25.391,-26.855,0.000,0
1602092592.963,-20.996,-30.273,-25.879,-23.438,0.000,0
1602092592.967,-11.719,-29.297,-28.320,-25.391,0.000,0
1602092592.971,-12.695,-22.461,-25.879,-23.438,0.000,0
1602092592.975,-11.230,-17.090,-20.508,-25.879,0.000,0
1602092592.979,-5.859,-14.648,-23.438,-29.297,0.000,0
1602092592.983,10.742,-12.695,-27.832,-35.645,0.000,0
1602092592.987,9.277,-15.137,-28.809,-35.645,0.000,0
1602092592.991,-12.695,-23.926,-27.832,-32.715,0.000,0
1602092592.995,-11.719,-31.250,-27.832,-44.434,0.000,0
1602092592.998,-9.277,-32.227,-29.297,-48.340,0.000,0
1602092593.002,-14.160,-33.203,-29.297,-31.738,0.000,0
1602092593.006,-9.766,-31.738,-28.320,-24.902,0.000,0
1602092593.010,-7.812,-31.250,-25.391,-31.250,0.000,0
1602092593.014,-21.484,-29.785,-19.531,-31.250,0.000,0
1602092593.018,-22.949,-28.809,-20.996,-39.551,0.000,0
1602092593.022,-11.719,-31.738,-23.438,-41.016,0.000,0
1602092593.026,-6.348,-28.320,-20.020,-32.227,0.000,0
1602092593.030,-5.371,-22.949,-20.996,-33.203,0.000,0
1602092593.034,-18.555,-28.809,-27.344,-42.969,0.000,0
1602092593.038,-24.902,-28.809,-31.250,-48.828,0.000,0
1602092593.041,-23.438,-30.762,-29.297,-43.945,0.000,0
1602092593.045,-22.461,-31.738,-30.762,-33.203,0.000,0
1602092593.049,-17.090,-29.785,-31.250,-30.273,0.000,0
1602092593.053,-10.742,-33.691,-25.879,-40.527,0.000,0
1602092593.057,-20.508,-31.738,-26.855,-40.527,0.000,0
1602092593.061,-24.902,-25.391,-25.879,-35.645,0.000,0
1602092593.065,-19.531,-23.926,-25.879,-41.992,0.000,0
1602092593.069,-10.254,-25.391,-29.297,-37.109,0.000,0
1602092593.073,-15.625,-27.344,-28.320,-30.762,0.000,0
1602092593.077,-26.855,-29.297,-27.344,-45.898,0.000,0
1602092593.080,-28.320,-30.762,-26.367,-44.922,0.000,0
1602092593.084,-15.137,-26.367,-25.391,-27.832,0.000,0
1602092593.088,-5.371,-22.949,-24.414,-38.086,0.000,0
1602092593.092,-16.602,-23.438,-22.461,-45.410,0.000,0
1602092593.096,-31.250,-22.949,-25.391,-44.922,0.000,0
1602092593.100,-27.344,-21.973,-29.297,-44.922,0.000,0
1602092593.104,-18.066,-20.508,-25.391,-40.527,0.000,0
1602092593.108,-12.695,-22.461,-27.344,-35.156,0.000,0
1602092593.112,-20.020,-26.855,-30.273,-39.551,0.000,0
1602092593.116,-21.484,-26.855,-30.762,-45.410,0.000,0
1602092593.120,-18.555,-26.367,-31.250,-50.293,0.000,0
1602092593.123,-27.832,-28.320,-27.832,-37.598,0.000,0
1602092593.127,-27.832,-29.785,-28.320,-31.250,0.000,0
1602092593.131,-23.438,-26.855,-28.809,-43.457,0.000,0
1602092593.135,-24.902,-22.949,-25.391,-51.758,0.000,0
1602092593.139,-32.715,-20.508,-24.902,-52.246,0.000,0
1602092593.143,-30.273,-22.461,-24.902,-38.086,0.000,0
1602092593.147,-20.996,-24.902,-24.902,-25.879,0.000,0
1602092593.151,-18.066,-25.879,-23.926,-25.879,0.000,0
1602092593.155,-21.973,-29.297,-23.438,-39.062,0.000,0
1602092593.159,-20.508,-25.391,-21.973,-47.363,0.000,0
1602092593.163,-13.672,-23.438,-29.785,-37.598,0.000,0
1602092593.166,-9.766,-29.297,-35.645,-33.203,0.000,0
1602092593.170,4.395,-28.320,-32.715,-38.086,0.000,0
1602092593.174,9.766,-28.320,-30.762,-37.598,0.000,0
1602092593.178,-7.324,-31.738,-29.297,-41.504,0.000,0
1602092593.182,-35.645,-33.691,-25.879,-45.898,0.000,0
1602092593.186,-39.551,-32.715,-22.461,-37.109,0.000,0
1602092593.190,-19.531,-30.762,-23.438,-32.227,0.000,0
1602092593.194,-7.324,-32.227,-27.344,-31.738,0.000,0
1602092593.198,-11.719,-34.180,-24.902,-28.809,0.000,0
1602092593.202,-17.578,-32.227,-20.508,-31.738,0.000,0
1602092593.205,-8.301,-30.762,-21.484,-32.715,0.000,0
1602092593.209,-9.277,-28.320,-20.020,-33.203,0.000,0
1602092593.213,-8.789,-25.391,-22.461,-37.109,0.000,0
1602092593.217,-10.254,-26.855,-27.832,-42.480,0.000,0
1602092593.221,-14.160,-28.809,-25.391,-35.645,0.000,0
1602092593.225,-9.277,-26.855,-24.414,-23.926,0.000,0
1602092593.229,-9.277,-27.832,-24.414,-20.508,0.000,0
1602092593.233,-9.766,-28.809,-20.020,-26.367,0.000,0
1602092593.237,-10.742,-26.855,-20.020,-38.574,0.000,0
1602092593.241,-12.695,-27.344,-23.926,-35.156,0.000,0
1602092593.245,-20.508,-26.367,-22.461,-23.438,0.000,0
1602092593.248,-7.324,-27.344,-25.391,-23.926,0.000,0
1602092593.252,0.977,-29.297,-26.367,-37.109,0.000,0
1602092593.256,-6.836,-26.855,-23.438,-50.781,0.000,0
1602092593.260,-13.184,-26.855,-24.414,-38.086,0.000,0
1602092593.264,-18.066,-29.785,-19.531,-19.043,0.000,0
1602092593.268,-9.766,-28.320,-21.484,-28.320,0.000,0
1602092593.272,3.418,-26.855,-25.391,-36.133,0.000,0
1602092593.276,-11.230,-33.691,-22.461,-38.086,0.000,0
1602092593.280,-31.250,-36.133,-18.066,-42.480,0.000,0
1602092593.284,-29.785,-29.297,-20.508,-41.992,0.000,0
1602092593.288,-14.648,-23.926,-23.438,-37.598,0.000,0
1602092593.291,-13.672,-26.855,-27.832,-32.715,0.000,0
1602092593.295,-16.113,-26.855,-25.879,-24.902,0.000,0
1602092593.299,-1.953,-20.996,-22.461,-26.367,0.000,0
1602092593.303,-0.488,-20.996,-27.344,-16.113,0.000,0
1602092593.307,-12.695,-23.926,-26.367,-9.277,0.000,0
1602092593.311,-13.672,-25.391,-25.879,-20.996,0.000,0
1602092593.315,-11.230,-26.855,-25.879,-34.180,0.000,0
1602092593.319,-11.719,-31.738,-23.926,-37.109,0.000,0
1602092593.323,-3.418,-35.156,-20.020,-21.973,0.000,0
1602092593.327,-3.906,-35.645,-20.996,-24.902,0.000,0
1602092593.330,-1.465,-34.668,-22.461,-30.273,0.000,0
1602092593.334,-0.488,-35.645,-21.973,-27.344,0.000,0
1602092593.338,-11.719,-37.109,-27.832,-29.785,0.000,0
1602092593.342,-4.395,-34.668,-32.715,-24.414,0.000,0
1602092593.346,8.789,-31.250,-30.762,-17.578,0.000,0
1602092593.350,1.953,-26.367,-31.250,-23.926,0.000,0
1602092593.354,-1.953,-25.879,-29.297,-25.879,0.000,0
1602092593.358,-8.789,-26.367,-27.832,-32.227,0.000,0
1602092593.362,-10.742,-26.855,-30.762,-26.855,0.000,0
1602092593.366,-2.441,-26.367,-35.156,-16.602,0.000,0
1602092593.370,-1.465,-25.879,-31.250,-20.508,0.000,0
1602092593.373,-5.859,-31.250,-27.832,-31.738,0.000,0
1602092593.377,-0.488,-31.250,-25.391,-33.203,0.000,0
1602092593.381,5.371,-25.391,-22.461,-19.043,0.000,0
1602092593.385,15.625,-23.438,-23.926,-13.184,0.000,0
1602092593.389,19.531,-21.484,-17.090,-12.207,0.000,0
1602092593.393,12.695,-20.996,-11.719,-19.531,0.000,0
1602092593.397,7.324,-23.926,-20.020,-28.809,0.000,0
1602092593.401,1.953,-29.785,-19.531,-26.367,0.000,0
1602092593.405,5.371,-28.809,-18.555,-12.207,0.000,0
1602092593.409,4.883,-26.855,-25.391,-17.578,0.000,0
1602092593.413,11.230,-28.320,-22.949,-27.832,0.000,0
1602092593.416,5.859,-27.832,-20.020,-27.832,0.000,0
1602092593.420,-14.160,-27.832,-22.949,-25.879,0.000,0
1602092593.424,-12.207,-28.809,-24.414,-18.066,0.000,0
1602092593.428,-0.977,-31.250,-24.902,-11.719,0.000,0
1602092593.432,0.488,-25.391,-20.996,-12.695,0.000,0
1602092593.436,-0.488,-21.973,-15.625,-17.090,0.000,0
1602092593.440,0.488,-28.809,-20.020,-18.555,0.000,0
1602092593.444,3.418,-30.273,-30.273,-17.578,0.000,0
1602092593.448,7.324,-29.297,-28.809,-20.020,0.000,0
1602092593.452,2.441,-23.438,-20.508,-21.973,0.000,0
1602092593.455,7.324,-20.020,-20.020,-22.949,0.000,0
1602092593.459,0.488,-22.949,-19.043,-27.344,0.000,0
1602092593.463,-20.020,-21.484,-20.020,-18.066,0.000,0
1602092593.467,-5.859,-21.484,-21.484,-14.648,0.000,0
1602092593.471,9.766,-24.902,-21.973,-21.484,0.000,0
1602092593.475,-8.301,-25.879,-24.414,-36.621,0.000,0
1602092593.479,-17.090,-27.832,-24.902,-40.527,0.000,0
1602092593.483,-10.742,-28.809,-23.438,-41.016,0.000,0
1602092593.487,-3.418,-23.438,-21.484,-32.715,0.000,0
1602092593.491,10.742,-20.508,-18.555,-18.555,0.000,0
1602092593.495,8.789,-22.949,-20.020,-26.855,0.000,0
1602092593.498,-7.812,-23.926,-24.414,-39.551,0.000,0
1602092593.502,-12.207,-24.414,-24.902,-31.738,0.000,0
1602092593.506,-8.789,-25.879,-23.926,-26.855,0.000,0
1602092593.510,7.324,-24.902,-25.879,-32.715,0.000,0
1602092593.514,16.113,-22.461,-22.949,-28.320,0.000,0
1602092593.518,1.953,-23.438,-20.996,-27.832,0.000,0
1602092593.522,-7.812,-21.973,-26.367,-28.809,0.000,0
1602092593.526,-12.695,-20.508,-24.414,-27.832,0.000,0
1602092593.530,-2.441,-24.414,-21.973,-21.973,0.000,0
1602092593.534,0.488,-28.809,-23.438,-24.902,0.000,0
1602092593.538,-6.348,-24.414,-19.531,-35.645,0.000,0
1602092593.541,-5.859,-20.020,-17.090,-28.809,0.000,0
1602092593.545,-4.395,-23.438,-22.461,-18.555,0.000,0
1602092593.549,-5.371,-29.297,-23.438,-27.832,0.000,0
1602092593.553,-12.207,-31.738,-25.391,-38.086,0.000,0
1602092593.557,-25.391,-30.273,-28.809,-43.945,0.000,0
1602092593.561,-39.062,-29.785,-27.832,-42.969,0.000,0
1602092593.565,-27.344,-26.367,-25.879,-25.879,0.000,0
1602092593.569,-6.836,-19.531,-23.438,-15.625,0.000,0
1602092593.573,-10.254,-20.020,-20.508,-28.320,0.000,0
1602092593.577,-20.020,-25.391,-20.020,-33.691,0.000,0
1602092593.580,-22.949,-28.809,-20.508,-32.715,0.000,0
1602092593.584,-21.973,-29.785,-18.555,-28.809,0.000,0
1602092593.588,-6.348,-25.391,-21.973,-22.949,0.000,0
1602092593.592,5.859,-23.438,-24.902,-19.043,0.000,0
1602092593.596,4.883,-24.414,-20.020,-24.414,0.000,0
1602092593.600,-10.254,-26.367,-14.160,-27.344,0.000,0
1602092593.604,-19.531,-26.367,-11.719,-11.719,0.000,0
1602092593.608,-8.789,-26.367,-15.137,-12.207,0.000,0
1602092593.612,-7.324,-28.320,-17.578,-27.344,0.000,0
1602092593.616,-10.742,-27.344,-21.973,-35.156,0.000,0
1602092593.620,-24.902,-26.367,-24.414,-37.598,0.000,0
1602092593.623,-32.227,-26.855,-23.438,-32.715,0.000,0
1602092593.627,-13.184,-23.926,-22.461,-18.066,0.000,0
1602092593.631,-6.836,-21.484,-21.484,-18.555,0.000,0
1602092593.635,-6.836,-18.555,-19.043,-23.926,0.000,0
1602092593.639,-7.812,-20.508,-16.602,-20.508,0.000,0
1602092593.643,-15.625,-29.297,-14.648,-12.695,0.000,0
1602092593.647,-3.906,-31.738,-17.090,-14.648,0.000,0
1602092593.651,6.836,-26.367,-23.438,-20.996,0.000,0
1602092593.655,0.488,-26.855,-23.926,-25.879,0.000,0
1602092593.659,-22.461,-33.691,-21.973,-38.086,0.000,0
1602092593.663,-40.039,-32.715,-20.996,-36.621,0.000,0
1602092593.666,-34.668,-31.738,-22.461,-35.645,0.000,0
1602092593.670,-18.066,-31.738,-25.879,-41.504,0.000,0
1602092593.674,-13.672,-33.203,-29.297,-43.945,0.000,0
1602092593.678,-22.461,-29.297,-27.832,-48.340,0.000,0
1602092593.682,-16.602,-26.855,-26.367,-36.133,0.000,0
1602092593.686,-12.695,-30.273,-25.391,-29.785,0.000,0
1602092593.690,-2.441,-27.344,-26.367,-13.184,0.000,0
1602092593.694,0.488,-23.438,-24.902,-8.301,0.000,0
1602092593.698,-28.809,-22.949,-27.832,-39.062,0.000,0
1602092593.702,-35.156,-28.320,-29.785,-36.621,0.000,0
1602092593.705,-39.551,-28.809,-26.367,-39.551,0.000,0
1602092593.709,-39.551,-23.438,-26.367,-47.852,0.000,0
1602092593.713,-19.531,-20.508,-23.926,-31.738,0.000,0
1602092593.717,-24.902,-19.043,-21.973,-38.086,0.000,0
1602092593.721,-32.227,-23.438,-22.461,-41.504,0.000,0
1602092593.725,-20.996,-24.414,-20.996,-29.297,0.000,0
1602092593.729,-26.367,-22.949,-19.043,-22.461,0.000,0
1602092593.733,-38.574,-21.973,-22.949,-27.344,0.000,0
1602092593.737,-31.250,-24.902,-29.785,-41.016,0.000,0
1602092593.741,-29.297,-24.902,-26.367,-40.039,0.000,0
1602092593.745,-29.297,-23.926,-18.555,-27.344,0.000,0
1602092593.748,-20.020,-23.438,-14.648,-27.832,0.000,0
1602092593.752,-24.902,-25.391,-19.531,-36.133,0.000,0
1602092593.756,-36.133,-30.273,-22.949,-40.527,0.000,0
1602092593.760,-38.086,-32.715,-23.438,-37.598,0.000,0
1602092593.764,-27.344,-35.156,-22.461,-29.785,0.000,0
1602092593.768,-18.555,-32.715,-19.043,-18.555,0.000,0
1602092593.772,-10.742,-28.809,-16.602,-13.184,0.000,0
1602092593.776,-14.648,-27.344,-16.113,-17.090,0.000,0
1602092593.780,-22.949,-28.320,-18.066,-15.625,0.000,0
1602092593.784,-19.043,-31.738,-20.996,-4.395,0.000,0
1602092593.788,0.977,-28.809,-19.043,-8.301,0.000,0
1602092593.791,18.555,-30.762,-22.949,-16.113,0.000,0
1602092593.795,11.719,-31.250,-24.902,-18.066,0.000,0
1602092593.799,-2.441,-27.832,-18.555,-16.602,0.000,0
1602092593.803,-19.531,-27.832,-13.184,-11.719,0.000,0
1602092593.807,-24.414,-32.227,-17.090,-18.066,0.000,0
1602092593.811,-20.508,-39.062,-24.902,-18.066,0.000,0
1602092593.815,-21.484,-41.504,-27.344,-14.160,0.000,0
1602092593.819,-19.043,-39.551,-25.879,-26.855,0.000,0
1602092593.823,-27.832,-40.527,-26.367,-31.250,0.000,0
1602092593.827,-40.039,-40.039,-29.785,-31.250,0.000,0
1602092593.830,-38.086,-31.250,-27.832,-38.086,0.000,0
1602092593.834,-23.438,-29.297,-23.926,-31.738,0.000,0
1602092593.838,-28.320,-28.320,-24.414,-29.297,0.000,0
1602092593.842,-37.109,-21.484,-21.973,-23.926,0.000,0
1602092593.846,-14.160,-24.902,-18.066,-15.625,0.000,0
1602092593.850,-5.859,-25.879,-18.066,-15.137,0.000,0
1602092593.854,-23.438,-23.438,-18.555,-18.066,0.000,0
1602092593.858,-46.387,-24.414,-14.648,-19.043,0.000,0
1602092593.862,-46.875,-22.949,-17.090,-22.461,0.000,0
1602092593.866,-30.762,-18.066,-19.531,-18.555,0.000,0
1602092593.870,-27.344,-17.578,-20.020,-17.090,0.000,0
1602092593.873,-19.043,-20.508,-22.949,-22.949,0.000,0
1602092593.877,-26.367,-19.531,-18.555,-26.855,0.000,0
1602092593.881,-38.574,-17.090,-18.066,-19.531,0.000,0
1602092593.885,-34.668,-21.973,-21.484,-4.883,0.000,0
1602092593.889,-37.109,-26.367,-19.531,-10.742,0.000,0
1602092593.893,-38.086,-24.414,-19.043,-21.484,0.000,0
1602092593.897,-31.738,-24.414,-23.438,-27.344,0.000,0
1602092593.901,-20.508,-25.879,-23.926,-27.832,0.000,0
1602092593.905,-20.996,-26.855,-22.949,-28.320,0.000,0
1602092593.909,-32.227,-28.320,-26.855,-26.367,0.000,0
1602092593.913,-26.855,-30.273,-28.320,-29.785,0.000,0
1602092593.916,-27.832,-29.785,-21.973,-37.109,0.000,0
1602092593.920,-36.621,-28.320,-18.066,-36.133,0.000,0
1602092593.924,-30.762,-27.832,-18.555,-25.879,0.000,0
1602092593.928,-20.996,-25.391,-22.949,-25.879,0.000,0
1602092593.932,-22.461,-25.391,-24.902,-31.250,0.000,0
1602092593.936,-17.578,-27.832,-21.973,-32.227,0.000,0
1602092593.940,-26.367,-31.738,-26.367,-39.062,0.000,0
1602092593.944,-32.227,-31.250,-24.414,-30.273,0.000,0
1602092593.948,-28.320,-29.297,-25.391,-20.020,0.000,0
1602092593.952,-24.414,-28.809,-27.344,-22.949,0.000,0
1602092593.955,-19.531,-26.367,-27.344,-37.109,0.000,0
1602092593.959,-7.324,-27.344,-28.320,-42.969,0.000,0
1602092593.963,-7.812,-27.344,-24.414,-33.203,0.000,0
1602092593.967,-28.809,-21.973,-21.484,-32.715,0.000,0
1602092593.971,-24.414,-25.879,-25.391,-35.645,0.000,0
1602092593.975,-15.625,-25.391,-26.855,-39.062,0.000,0
