timestamps,TP9,AF7,AF8,TP10,Right AUX,Marker0
1593292824.970,105.957,-31.738,-38.574,109.863,0.000,0
1593292824.974,203.125,-31.250,-37.598,189.941,0.000,0
1593292824.978,-18.066,-31.250,-36.621,-22.949,0.000,0
1593292824.982,-184.570,-29.785,-35.156,-174.316,0.000,0
1593292824.986,-120.605,-28.809,-34.180,-100.098,0.000,0
1593292824.990,107.910,-21.484,-31.250,112.793,0.000,0
1593292824.994,218.750,-17.578,-33.203,199.219,0.000,0
1593292824.997,16.602,-20.508,-30.762,14.160,0.000,0
1593292825.001,-173.828,-25.391,-26.367,-149.414,0.000,0
1593292825.005,-150.391,-30.273,-29.297,-121.582,0.000,0
1593292825.009,65.918,-29.785,-30.762,54.688,0.000,0
1593292825.013,225.098,-25.879,-27.832,187.012,0.000,0
1593292825.017,45.898,-27.832,-24.414,37.109,0.000,0
1593292825.021,-159.180,-32.227,-22.461,-133.301,0.000,0
1593292825.025,-175.781,-31.250,-24.414,-126.465,0.000,0
1593292825.029,20.508,-29.785,-27.832,23.926,0.000,0
1593292825.033,231.934,-26.367,-27.832,187.988,0.000,0
1593292825.036,70.801,-24.902,-28.809,57.129,0.000,0
1593292825.040,-154.297,-28.320,-30.762,-136.230,0.000,0
1593292825.044,-172.363,-26.855,-26.855,-141.113,0.000,0
1593292825.048,-14.160,-20.996,-27.344,-1.465,0.000,0
1593292825.052,208.984,-21.973,-32.715,183.105,0.000,0
1593292825.056,107.422,-22.461,-30.762,83.008,0.000,0
1593292825.060,-133.789,-18.066,-28.320,-129.883,0.000,0
1593292825.064,-177.246,-18.066,-27.344,-153.809,0.000,0
1593292825.068,-39.062,-17.090,-30.273,-26.855,0.000,0
1593292825.072,187.988,-16.602,-30.273,157.227,0.000,0
1593292825.076,139.160,-17.090,-30.762,91.797,0.000,0
1593292825.079,-112.305,-19.531,-36.133,-122.559,0.000,0
1593292825.083,-193.848,-26.855,-35.645,-167.480,0.000,0
1593292825.087,-87.402,-30.273,-26.367,-58.594,0.000,0
1593292825.091,149.414,-30.762,-23.926,125.488,0.000,0
1593292825.095,142.090,-29.297,-23.438,102.539,0.000,0
1593292825.099,-105.469,-24.414,-19.531,-101.074,0.000,0
1593292825.103,-209.473,-25.391,-21.973,-184.082,0.000,0
1593292825.107,-113.770,-24.902,-24.902,-95.215,0.000,0
1593292825.111,124.023,-24.902,-25.879,103.027,0.000,0
1593292825.115,159.668,-26.367,-25.391,118.164,0.000,0
1593292825.119,-75.684,-27.832,-25.391,-84.961,0.000,0
1593292825.122,-206.543,-31.250,-29.297,-186.523,0.000,0
1593292825.126,-144.531,-29.297,-33.691,-118.164,0.000,0
1593292825.130,91.797,-28.809,-33.691,82.031,0.000,0
1593292825.134,176.270,-28.320,-32.715,147.949,0.000,0
1593292825.138,-51.270,-24.414,-33.691,-43.945,0.000,0
1593292825.142,-202.637,-22.949,-31.250,-177.246,0.000,0
1593292825.146,-147.461,-27.344,-30.762,-140.137,0.000,0
1593292825.150,81.055,-30.273,-33.691,63.477,0.000,0
1593292825.154,204.102,-31.738,-31.738,172.363,0.000,0
1593292825.158,-2.930,-31.250,-30.273,-21.973,0.000,0
1593292825.161,-192.383,-28.809,-28.320,-171.875,0.000,0
1593292825.165,-181.152,-29.297,-24.902,-136.230,0.000,0
1593292825.169,31.250,-27.832,-31.250,31.738,0.000,0
1593292825.173,186.523,-23.438,-34.180,142.578,0.000,0
1593292825.177,8.789,-21.484,-36.133,-2.930,0.000,0
1593292825.181,-165.527,-23.926,-34.180,-148.926,0.000,0
1593292825.185,-167.480,-29.785,-32.227,-137.207,0.000,0
1593292825.189,0.977,-31.250,-35.156,15.137,0.000,0
1593292825.193,177.734,-31.738,-31.738,152.832,0.000,0
1593292825.197,52.734,-29.785,-30.762,29.297,0.000,0
1593292825.201,-155.762,-30.273,-28.320,-131.836,0.000,0
1593292825.204,-172.852,-30.273,-25.879,-137.207,0.000,0
1593292825.208,-21.484,-30.762,-32.715,-17.578,0.000,0
1593292825.212,163.086,-32.715,-36.621,141.602,0.000,0
1593292825.216,60.547,-29.785,-31.250,44.922,0.000,0
1593292825.220,-130.371,-29.785,-32.715,-125.488,0.000,0
1593292825.224,-161.621,-33.691,-38.574,-150.391,0.000,0
1593292825.228,-35.156,-34.180,-37.598,-49.316,0.000,0
1593292825.232,183.105,-34.180,-36.133,133.301,0.000,0
1593292825.236,122.070,-33.203,-37.598,65.430,0.000,0
1593292825.240,-106.934,-37.109,-33.203,-125.977,0.000,0
1593292825.244,-170.898,-40.039,-29.785,-157.227,0.000,0
1593292825.247,-64.941,-40.039,-30.762,-42.969,0.000,0
1593292825.251,139.648,-40.039,-31.250,123.535,0.000,0
1593292825.255,119.629,-34.668,-30.273,80.078,0.000,0
1593292825.259,-92.285,-31.250,-32.227,-87.891,0.000,0
1593292825.263,-171.387,-35.645,-32.715,-140.137,0.000,0
1593292825.267,-90.820,-30.762,-31.738,-60.547,0.000,0
1593292825.271,118.164,-27.832,-31.738,123.047,0.000,0
1593292825.275,152.832,-28.320,-28.320,129.395,0.000,0
1593292825.279,-81.055,-28.320,-30.273,-79.590,0.000,1
1593292825.283,-213.379,-33.691,-37.598,-183.594,0.000,0
1593292825.286,-133.301,-30.273,-36.621,-101.074,0.000,0
1593292825.290,108.398,-33.203,-37.598,100.098,0.000,0
1593292825.294,172.852,-37.109,-38.086,144.043,0.000,0
1593292825.298,-61.035,-33.203,-36.133,-54.199,0.000,0
1593292825.302,-204.102,-30.273,-32.227,-183.105,0.000,0
1593292825.306,-151.367,-27.344,-31.738,-123.047,0.000,0
1593292825.310,72.266,-28.320,-36.621,87.891,0.000,0
1593292825.314,183.594,-34.668,-37.109,165.039,0.000,0
1593292825.318,-37.598,-41.016,-39.062,-35.645,0.000,0
1593292825.322,-211.914,-38.086,-40.039,-184.082,0.000,0
1593292825.326,-174.805,-30.762,-36.133,-141.113,0.000,0
1593292825.329,44.434,-22.949,-31.250,51.758,0.000,0
1593292825.333,193.359,-24.902,-28.809,172.363,0.000,0
1593292825.337,-5.371,-26.855,-31.738,-5.371,0.000,0
1593292825.341,-187.988,-23.438,-35.156,-169.434,0.000,0
1593292825.345,-177.734,-25.391,-33.203,-148.926,0.000,0
1593292825.349,19.531,-22.949,-30.273,17.090,0.000,0
1593292825.353,209.473,-24.902,-32.715,168.457,0.000,0
1593292825.357,32.227,-28.320,-36.133,22.949,0.000,0
1593292825.361,-188.477,-28.809,-36.133,-152.832,0.000,0
1593292825.365,-188.965,-25.879,-32.227,-148.926,0.000,0
1593292825.369,-7.324,-24.902,-31.738,5.371,0.000,0
1593292825.372,207.520,-27.344,-33.203,177.246,0.000,0
1593292825.376,72.754,-25.879,-31.250,65.430,0.000,0
1593292825.380,-161.621,-28.320,-31.250,-136.230,0.000,0
1593292825.384,-197.754,-28.320,-35.156,-167.480,0.000,0
1593292825.388,-50.781,-26.855,-34.668,-22.461,0.000,0
1593292825.392,184.570,-25.879,-37.598,162.598,0.000,0
1593292825.396,106.445,-24.414,-39.551,71.777,0.000,0
1593292825.400,-134.766,-26.855,-31.250,-134.277,0.000,0
1593292825.404,-198.730,-29.297,-28.320,-172.852,0.000,0
1593292825.408,-67.871,-29.297,-35.645,-58.594,0.000,0
1593292825.411,172.363,-28.809,-40.039,144.531,0.000,0
1593292825.415,123.047,-30.273,-35.156,97.168,0.000,0
1593292825.419,-126.953,-33.203,-30.273,-125.000,0.000,0
1593292825.423,-204.102,-30.762,-34.668,-169.922,0.000,0
1593292825.427,-93.750,-26.367,-31.738,-66.895,0.000,0
1593292825.431,155.273,-30.762,-28.320,138.184,0.000,0
1593292825.435,159.180,-30.273,-27.832,137.695,0.000,0
1593292825.439,-84.473,-31.250,-32.715,-89.355,0.000,0
1593292825.443,-192.871,-32.227,-34.668,-182.129,0.000,0
1593292825.447,-121.094,-28.809,-34.668,-94.238,0.000,0
1593292825.451,125.977,-25.391,-31.250,115.723,0.000,0
1593292825.454,164.551,-25.391,-28.809,131.836,0.000,0
1593292825.458,-81.543,-23.926,-37.109,-95.703,0.000,0
1593292825.462,-186.523,-23.438,-42.480,-176.758,0.000,0
1593292825.466,-132.812,-26.855,-38.574,-105.469,0.000,0
1593292825.470,99.609,-26.855,-33.203,96.191,0.000,0
1593292825.474,187.012,-27.344,-35.645,159.668,0.000,0
1593292825.478,-41.992,-28.320,-36.621,-37.109,0.000,0
1593292825.482,-195.312,-29.785,-36.133,-165.039,0.000,0
1593292825.486,-147.949,-30.273,-33.203,-132.324,0.000,0
1593292825.490,82.520,-30.762,-31.738,66.406,0.000,0
1593292825.494,212.402,-29.297,-39.062,179.199,0.000,0
1593292825.497,8.301,-24.414,-36.133,-1.465,0.000,0
1593292825.501,-171.387,-27.344,-29.297,-150.879,0.000,0
1593292825.505,-160.156,-35.156,-28.809,-125.977,0.000,0
1593292825.509,45.410,-28.320,-28.809,42.480,0.000,0
1593292825.513,204.102,-23.438,-30.762,168.945,0.000,0
1593292825.517,31.738,-25.391,-33.691,14.648,0.000,0
1593292825.521,-163.086,-21.973,-37.109,-157.227,0.000,0
1593292825.525,-175.293,-29.297,-41.016,-163.086,0.000,0
1593292825.529,1.953,-36.621,-45.898,-2.441,0.000,0
1593292825.533,205.078,-33.691,-40.527,163.086,0.000,0
1593292825.536,77.637,-24.902,-31.250,31.250,0.000,0
1593292825.540,-146.973,-21.484,-32.227,-150.391,0.000,0
1593292825.544,-184.570,-22.949,-37.109,-158.203,0.000,0
1593292825.548,-17.090,-27.344,-37.109,-23.438,0.000,0
1593292825.552,207.520,-29.785,-32.227,166.504,0.000,0
1593292825.556,89.355,-28.320,-33.691,78.125,0.000,0
1593292825.560,-155.762,-26.367,-37.109,-133.301,0.000,0
1593292825.564,-195.312,-26.367,-29.785,-166.016,0.000,0
1593292825.568,-50.293,-27.832,-32.715,-35.645,0.000,0
1593292825.572,183.105,-27.344,-38.086,157.715,0.000,0
1593292825.576,119.629,-26.367,-34.668,95.215,0.000,0
1593292825.579,-142.578,-26.367,-32.715,-122.559,0.000,0
1593292825.583,-212.402,-25.391,-30.762,-174.805,0.000,0
1593292825.587,-75.684,-23.926,-28.809,-56.152,0.000,0
1593292825.591,166.504,-20.996,-27.832,146.973,0.000,0
1593292825.595,156.250,-21.973,-29.785,123.047,0.000,0
1593292825.599,-97.656,-28.320,-35.645,-96.191,0.000,0
1593292825.603,-208.496,-29.785,-35.645,-173.828,0.000,0
1593292825.607,-105.469,-29.297,-30.273,-71.289,0.000,0
1593292825.611,130.371,-26.367,-31.738,132.812,0.000,0
1593292825.615,172.363,-22.949,-35.156,155.273,0.000,0
1593292825.619,-61.035,-23.926,-35.156,-59.082,0.000,0
1593292825.622,-210.938,-27.832,-34.180,-171.387,0.000,0
1593292825.626,-129.395,-28.320,-30.762,-86.426,0.000,0
1593292825.630,110.840,-20.996,-31.250,111.328,0.000,0
1593292825.634,181.152,-19.531,-33.203,151.855,0.000,0
1593292825.638,-40.039,-23.926,-30.762,-47.852,0.000,0
1593292825.642,-181.152,-21.484,-30.762,-161.133,0.000,0
1593292825.646,-139.160,-19.043,-30.762,-113.770,0.000,0
1593292825.650,68.359,-20.996,-29.785,74.707,0.000,0
1593292825.654,195.312,-21.484,-30.273,182.129,0.000,0
1593292825.658,4.395,-21.484,-29.297,-0.977,0.000,0
1593292825.661,-164.551,-22.949,-26.855,-155.273,0.000,0
1593292825.665,-162.109,-20.020,-31.250,-136.230,0.000,0
1593292825.669,29.297,-24.902,-31.738,43.945,0.000,0
1593292825.673,205.566,-29.297,-29.297,176.758,0.000,0
1593292825.677,24.902,-24.414,-29.297,3.906,0.000,0
1593292825.681,-192.871,-25.391,-32.227,-167.480,0.000,0
1593292825.685,-183.594,-25.879,-34.180,-150.391,0.000,0
1593292825.689,7.324,-23.926,-28.320,19.531,0.000,0
1593292825.693,201.660,-23.438,-24.902,176.270,0.000,0
1593292825.697,60.547,-21.973,-27.344,30.762,0.000,0
1593292825.701,-164.062,-22.461,-29.785,-154.297,0.000,0
1593292825.704,-184.082,-22.949,-33.203,-150.879,0.000,0
1593292825.708,-12.207,-24.902,-33.691,-1.953,0.000,0
1593292825.712,195.312,-26.367,-33.203,167.480,0.000,0
1593292825.716,79.102,-24.414,-38.574,56.641,0.000,0
1593292825.720,-147.461,-26.855,-41.504,-141.113,0.000,0
1593292825.724,-193.359,-28.809,-41.016,-165.039,0.000,0
1593292825.728,-42.480,-28.809,-40.527,-26.855,0.000,0
1593292825.732,196.289,-29.785,-40.527,169.434,0.000,0
1593292825.736,114.258,-30.762,-35.645,77.637,0.000,0
1593292825.740,-136.230,-32.227,-31.738,-134.766,0.000,0
1593292825.744,-202.637,-29.785,-35.156,-184.082,0.000,0
1593292825.747,-83.496,-27.832,-36.133,-64.941,0.000,0
1593292825.751,169.922,-25.879,-36.621,159.668,0.000,0
1593292825.755,140.625,-25.391,-38.086,116.211,0.000,0
1593292825.759,-111.328,-26.855,-34.180,-106.934,0.000,0
1593292825.763,-212.891,-28.320,-33.691,-186.035,0.000,0
1593292825.767,-101.074,-27.832,-35.645,-92.773,0.000,0
1593292825.771,146.484,-24.414,-29.785,125.977,0.000,0
1593292825.775,161.133,-20.996,-28.320,125.488,0.000,0
1593292825.779,-77.637,-25.391,-33.203,-87.891,0.000,0
1593292825.783,-205.078,-29.297,-30.762,-177.734,0.000,0
1593292825.786,-129.395,-28.320,-29.297,-103.516,0.000,0
1593292825.790,106.934,-31.250,-36.133,100.586,0.000,0
1593292825.794,169.922,-31.250,-37.598,136.719,0.000,0
1593292825.798,-56.641,-24.902,-37.598,-56.641,0.000,0
1593292825.802,-194.336,-27.832,-38.086,-178.223,0.000,0
1593292825.806,-148.438,-34.668,-37.109,-125.977,0.000,0
1593292825.810,84.473,-37.109,-41.992,83.008,0.000,0
1593292825.814,196.777,-37.109,-38.086,156.738,0.000,0
1593292825.818,-39.062,-30.762,-36.133,-40.039,0.000,0
1593292825.822,-205.566,-28.809,-39.551,-169.922,0.000,0
1593292825.826,-158.691,-31.738,-38.574,-125.488,0.000,0
1593292825.829,56.152,-30.273,-36.621,58.105,0.000,0
1593292825.833,196.777,-28.320,-38.574,156.738,0.000,0
1593292825.837,2.441,-34.668,-38.574,-33.691,0.000,0
1593292825.841,-200.195,-37.109,-33.691,-186.523,0.000,0
1593292825.845,-182.129,-31.250,-30.273,-161.133,0.000,0
1593292825.849,32.715,-27.832,-30.762,17.578,0.000,0
1593292825.853,212.891,-28.809,-34.180,177.734,0.000,0
1593292825.857,45.410,-28.809,-34.180,16.602,0.000,0
1593292825.861,-178.711,-28.320,-31.738,-167.969,0.000,0
1593292825.865,-194.336,-33.691,-31.738,-173.828,0.000,0
1593292825.869,-18.555,-37.109,-32.227,-16.602,0.000,0
1593292825.872,191.895,-32.715,-31.250,173.828,0.000,0
1593292825.876,64.941,-32.715,-31.250,55.176,0.000,0
1593292825.880,-166.992,-33.691,-31.738,-147.461,0.000,0
1593292825.884,-194.824,-28.320,-29.297,-163.574,0.000,0
1593292825.888,-41.016,-28.320,-25.879,-18.066,0.000,0
1593292825.892,198.242,-28.320,-27.344,173.340,0.000,0
1593292825.896,106.445,-25.879,-28.809,87.402,0.000,0
1593292825.900,-142.090,-27.344,-30.273,-122.070,0.000,0
1593292825.904,-177.246,-27.344,-34.180,-169.434,0.000,0
1593292825.908,-47.363,-23.926,-36.133,-42.480,0.000,0
1593292825.911,172.852,-23.438,-31.250,167.480,0.000,0
1593292825.915,139.160,-25.879,-27.344,118.652,0.000,0
1593292825.919,-107.910,-27.344,-31.738,-108.887,0.000,0
1593292825.923,-177.734,-25.879,-36.133,-155.273,0.000,0
1593292825.927,-59.570,-24.414,-31.738,-35.645,0.000,0
1593292825.931,150.879,-25.391,-33.691,133.789,0.000,0
1593292825.935,153.809,-28.809,-37.598,125.000,0.000,0
1593292825.939,-104.004,-30.273,-35.156,-105.469,0.000,0
1593292825.943,-208.496,-27.832,-32.227,-183.594,0.000,0
1593292825.947,-121.582,-27.832,-33.691,-84.473,0.000,0
1593292825.951,112.305,-29.297,-36.133,104.980,0.000,0
1593292825.954,160.645,-31.250,-39.551,138.184,0.000,0
1593292825.958,-76.660,-26.855,-39.062,-74.219,0.000,0
1593292825.962,-208.984,-24.414,-36.621,-185.547,0.000,0
1593292825.966,-135.742,-26.855,-35.645,-111.328,0.000,0
1593292825.970,110.352,-25.391,-27.832,85.449,0.000,0
1593292825.974,192.871,-22.949,-29.297,148.926,0.000,0
1593292825.978,-33.691,-21.484,-33.691,-51.270,0.000,0
1593292825.982,-204.102,-21.973,-30.273,-183.105,0.000,0
1593292825.986,-155.762,-23.926,-29.297,-134.766,0.000,0
1593292825.990,77.637,-24.414,-33.203,64.941,0.000,0
1593292825.994,213.867,-25.879,-33.691,176.758,0.000,0
1593292825.997,13.672,-26.855,-30.762,-13.184,0.000,0
1593292826.001,-181.641,-25.391,-28.809,-162.109,0.000,0
1593292826.005,-162.109,-28.809,-26.367,-126.465,0.000,0
1593292826.009,36.621,-32.715,-34.180,46.387,0.000,0
1593292826.013,209.473,-31.738,-30.762,179.688,0.000,0
1593292826.017,37.109,-30.762,-21.484,20.508,0.000,0
1593292826.021,-167.480,-33.203,-25.391,-149.414,0.000,0
1593292826.025,-176.270,-37.109,-21.973,-137.207,0.000,0
1593292826.029,-8.301,-38.574,-24.414,20.508,0.000,0
1593292826.033,195.312,-40.527,-28.809,179.688,0.000,0
1593292826.036,60.059,-37.598,-21.973,53.223,0.000,0
1593292826.040,-164.551,-34.668,-21.484,-140.625,0.000,0
1593292826.044,-198.730,-33.203,-27.344,-158.203,0.000,0
1593292826.048,-41.992,-32.227,-32.227,-22.949,0.000,0
1593292826.052,192.871,-30.762,-33.203,161.621,0.000,0
1593292826.056,100.586,-27.832,-26.855,79.590,0.000,0
1593292826.060,-142.578,-28.320,-26.855,-128.418,0.000,0
1593292826.064,-188.477,-27.832,-31.738,-167.480,0.000,0
1593292826.068,-48.828,-25.879,-33.691,-36.133,0.000,0
1593292826.072,179.199,-26.367,-29.297,161.621,0.000,0
1593292826.076,116.211,-25.391,-29.785,89.355,0.000,0
1593292826.079,-138.672,-21.484,-30.273,-125.000,0.000,2
1593292826.083,-210.938,-21.484,-26.855,-175.293,0.000,0
1593292826.087,-80.078,-25.879,-31.250,-57.129,0.000,0
1593292826.091,161.621,-25.391,-31.738,140.137,0.000,0
1593292826.095,149.414,-23.926,-27.832,116.211,0.000,0
1593292826.099,-107.910,-21.973,-28.320,-97.656,0.000,0
1593292826.103,-206.543,-22.461,-28.809,-187.500,0.000,0
1593292826.107,-101.074,-24.902,-30.762,-86.914,0.000,0
1593292826.111,135.742,-26.855,-30.273,125.000,0.000,0
1593292826.115,168.457,-27.344,-28.320,146.973,0.000,0
1593292826.119,-72.266,-27.344,-28.809,-67.383,0.000,0
1593292826.122,-201.660,-26.367,-25.879,-186.523,0.000,0
1593292826.126,-133.301,-26.855,-26.367,-114.746,0.000,0
1593292826.130,107.422,-27.344,-30.273,105.469,0.000,0
1593292826.134,193.359,-26.855,-29.297,163.086,0.000,0
1593292826.138,-44.922,-26.855,-29.297,-47.852,0.000,0
1593292826.142,-195.801,-26.367,-32.715,-173.340,0.000,0
1593292826.146,-140.625,-29.785,-34.668,-121.094,0.000,0
1593292826.150,70.801,-29.785,-30.273,76.172,0.000,0
1593292826.154,183.105,-28.320,-27.344,163.086,0.000,0
1593292826.158,-23.438,-27.344,-30.762,-26.855,0.000,0
1593292826.161,-197.266,-27.832,-36.621,-171.875,0.000,0
1593292826.165,-175.781,-30.762,-40.039,-134.766,0.000,0
1593292826.169,42.969,-33.691,-41.016,58.594,0.000,0
1593292826.173,216.309,-32.227,-36.621,185.059,0.000,0
1593292826.177,31.250,-24.902,-26.855,14.648,0.000,0
1593292826.181,-173.828,-22.461,-20.020,-147.461,0.000,0
1593292826.185,-173.828,-24.902,-22.461,-130.371,0.000,0
1593292826.189,18.066,-23.926,-22.949,36.621,0.000,0
1593292826.193,210.449,-21.484,-21.973,185.059,0.000,0
1593292826.197,56.152,-22.461,-23.438,41.992,0.000,0
1593292826.201,-165.527,-22.949,-25.391,-146.973,0.000,0
1593292826.204,-189.941,-25.879,-28.320,-161.133,0.000,0
1593292826.208,-23.926,-29.297,-27.832,-2.441,0.000,0
1593292826.212,191.406,-28.809,-24.902,174.805,0.000,0
1593292826.216,77.637,-25.391,-28.320,65.918,0.000,0
1593292826.220,-149.902,-27.344,-38.086,-135.742,0.000,0
1593292826.224,-191.895,-30.273,-34.668,-166.504,0.000,0
1593292826.228,-53.711,-32.227,-28.809,-37.598,0.000,0
1593292826.232,187.012,-35.645,-30.273,150.879,0.000,0
1593292826.236,115.234,-32.227,-27.344,74.219,0.000,0
1593292826.240,-133.789,-31.250,-23.438,-126.953,0.000,0
1593292826.244,-184.082,-32.715,-25.879,-169.434,0.000,0
1593292826.247,-60.059,-31.738,-29.785,-71.289,0.000,0
1593292826.251,179.688,-28.809,-30.273,136.719,0.000,0
1593292826.255,147.461,-25.879,-27.344,106.934,0.000,0
1593292826.259,-108.398,-29.297,-27.832,-108.887,0.000,0
1593292826.263,-199.707,-27.832,-25.391,-172.363,0.000,0
1593292826.267,-98.145,-23.438,-27.344,-70.801,0.000,0
1593292826.271,143.066,-23.438,-34.180,134.766,0.000,0
1593292826.275,161.621,-29.785,-32.715,134.766,0.000,0
1593292826.279,-89.355,-33.203,-29.785,-81.543,0.000,0
1593292826.283,-203.125,-33.203,-26.855,-173.340,0.000,0
1593292826.286,-118.164,-30.762,-23.926,-87.402,0.000,0
1593292826.290,130.859,-28.320,-27.344,121.582,0.000,0
1593292826.294,174.316,-30.273,-27.832,143.066,0.000,0
1593292826.298,-80.566,-32.227,-25.879,-69.824,0.000,0
1593292826.302,-204.102,-34.180,-29.785,-169.922,0.000,0
1593292826.306,-149.414,-35.645,-31.250,-104.004,0.000,0
1593292826.310,79.590,-34.180,-29.297,89.844,0.000,0
1593292826.314,197.754,-31.738,-28.320,165.039,0.000,0
1593292826.318,-22.949,-30.762,-29.785,-29.785,0.000,0
1593292826.322,-206.543,-30.273,-36.133,-171.875,0.000,0
1593292826.326,-172.363,-29.297,-35.156,-142.578,0.000,0
1593292826.329,53.711,-26.855,-26.367,55.664,0.000,0
1593292826.333,200.195,-26.855,-24.414,179.199,0.000,0
1593292826.337,1.953,-32.227,-29.297,-3.906,0.000,0
1593292826.341,-182.617,-30.762,-30.273,-165.039,0.000,0
1593292826.345,-170.410,-30.762,-29.297,-150.391,0.000,0
1593292826.349,18.066,-35.156,-33.691,21.484,0.000,0
1593292826.353,204.590,-32.715,-34.180,176.758,0.000,0
1593292826.357,53.223,-31.738,-26.855,39.551,0.000,0
1593292826.361,-157.715,-29.297,-22.461,-141.113,0.000,0
1593292826.365,-173.828,-26.855,-27.344,-145.508,0.000,0
1593292826.369,2.441,-25.391,-35.156,0.977,0.000,0
1593292826.372,218.750,-24.414,-35.156,180.176,0.000,0
1593292826.376,87.891,-21.973,-32.715,71.289,0.000,0
1593292826.380,-155.273,-25.879,-38.574,-133.301,0.000,0
1593292826.384,-192.871,-28.809,-39.062,-153.809,0.000,0
1593292826.388,-20.020,-24.414,-35.645,-1.953,0.000,0
1593292826.392,182.129,-22.949,-32.715,166.016,0.000,0
1593292826.396,83.984,-21.973,-30.762,61.035,0.000,0
1593292826.400,-129.883,-20.508,-28.809,-125.977,0.000,0
1593292826.404,-191.406,-22.461,-27.344,-159.668,0.000,0
1593292826.408,-57.617,-21.973,-26.367,-38.086,0.000,0
1593292826.411,181.641,-21.484,-22.949,150.391,0.000,0
1593292826.415,134.766,-25.879,-26.367,103.516,0.000,0
1593292826.419,-118.164,-26.855,-32.227,-111.328,0.000,0
1593292826.423,-200.195,-23.926,-34.668,-178.711,0.000,0
1593292826.427,-91.309,-21.484,-36.621,-67.383,0.000,0
1593292826.431,155.762,-20.508,-33.691,137.695,0.000,0
1593292826.435,159.668,-17.578,-30.762,125.488,0.000,0
1593292826.439,-103.516,-21.973,-32.227,-104.980,0.000,0
1593292826.443,-211.914,-27.832,-33.691,-187.988,0.000,0
1593292826.447,-108.887,-25.879,-32.715,-92.773,0.000,0
1593292826.451,132.324,-23.926,-28.809,106.934,0.000,0
1593292826.454,170.898,-25.391,-27.832,138.184,0.000,0
1593292826.458,-65.918,-22.949,-26.367,-71.289,0.000,0
1593292826.462,-187.988,-17.090,-22.461,-166.992,0.000,0
1593292826.466,-125.000,-17.090,-21.484,-98.633,0.000,0
1593292826.470,113.281,-19.043,-23.438,104.980,0.000,0
1593292826.474,200.684,-21.973,-29.297,176.270,0.000,0
1593292826.478,-32.227,-24.414,-31.250,-39.551,0.000,0
1593292826.482,-187.012,-27.344,-26.367,-167.480,0.000,0
1593292826.486,-139.160,-26.367,-27.832,-113.281,0.000,0
1593292826.490,76.172,-23.926,-25.879,78.125,0.000,0
1593292826.494,209.473,-23.438,-21.973,176.758,0.000,0
1593292826.497,16.113,-20.996,-24.902,-18.066,0.000,0
1593292826.501,-171.875,-21.484,-27.832,-177.246,0.000,0
1593292826.505,-173.340,-23.438,-27.344,-142.090,0.000,0
1593292826.509,45.898,-26.367,-27.832,42.969,0.000,0
1593292826.513,221.191,-27.832,-26.367,184.082,0.000,0
1593292826.517,24.902,-27.344,-24.414,13.672,0.000,0
1593292826.521,-172.363,-26.855,-22.461,-161.133,0.000,0
1593292826.525,-168.945,-26.855,-27.344,-151.367,0.000,0
1593292826.529,16.113,-22.461,-30.273,20.020,0.000,0
1593292826.533,217.285,-18.066,-27.344,182.129,0.000,0
1593292826.536,62.012,-22.461,-27.832,32.227,0.000,0
1593292826.540,-169.434,-22.949,-31.250,-149.902,0.000,0
1593292826.544,-184.570,-23.438,-32.715,-152.832,0.000,0
1593292826.548,-18.066,-26.855,-32.715,-13.184,0.000,0
1593292826.552,204.102,-27.832,-34.668,168.945,0.000,0
1593292826.556,106.934,-25.879,-35.645,71.777,0.000,0
1593292826.560,-144.531,-24.414,-34.180,-139.160,0.000,0
1593292826.564,-195.312,-23.926,-31.738,-162.109,0.000,0
1593292826.568,-48.340,-29.297,-28.809,-27.832,0.000,0
1593292826.572,175.293,-27.344,-28.320,157.715,0.000,0
1593292826.576,112.305,-23.438,-29.297,87.891,0.000,0
1593292826.579,-122.070,-23.926,-29.785,-112.793,0.000,0
1593292826.583,-207.520,-24.902,-25.391,-164.062,0.000,0
1593292826.587,-78.613,-27.832,-27.344,-53.223,0.000,0
1593292826.591,161.621,-24.902,-34.668,137.207,0.000,0
1593292826.595,134.277,-23.438,-33.691,118.164,0.000,0
1593292826.599,-102.539,-19.531,-27.344,-83.496,0.000,0
1593292826.603,-205.566,-18.555,-25.391,-169.922,0.000,0
1593292826.607,-115.723,-22.461,-26.367,-77.637,0.000,0
1593292826.611,120.117,-25.879,-26.367,122.559,0.000,0
1593292826.615,161.621,-27.832,-23.438,145.020,0.000,0
1593292826.619,-66.406,-27.832,-23.438,-63.965,0.000,0
1593292826.622,-202.148,-27.344,-25.879,-167.480,0.000,0
1593292826.626,-152.344,-31.250,-30.273,-102.539,0.000,0
1593292826.630,80.078,-31.250,-35.156,91.309,0.000,0
1593292826.634,166.504,-26.855,-37.598,155.273,0.000,0
1593292826.638,-60.059,-29.297,-36.621,-41.992,0.000,0
1593292826.642,-210.449,-27.344,-31.250,-166.504,0.000,0
1593292826.646,-164.551,-26.367,-28.320,-123.535,0.000,0
1593292826.650,53.223,-26.367,-27.832,73.242,0.000,0
1593292826.654,174.805,-21.484,-27.344,172.852,0.000,0
1593292826.658,-37.109,-20.508,-28.809,-19.531,0.000,0
1593292826.661,-205.078,-25.879,-31.738,-171.875,0.000,0
1593292826.665,-174.316,-21.484,-34.668,-149.414,0.000,0
1593292826.669,36.133,-23.438,-34.180,43.945,0.000,0
1593292826.673,198.242,-27.344,-33.691,170.410,0.000,0
1593292826.677,3.418,-23.438,-35.156,-8.789,0.000,0
1593292826.681,-191.406,-22.461,-35.156,-166.992,0.000,0
1593292826.685,-172.852,-25.391,-33.691,-152.344,0.000,0
1593292826.689,7.324,-28.809,-37.598,10.254,0.000,0
1593292826.693,192.383,-33.691,-37.598,172.363,0.000,0
1593292826.697,47.363,-32.715,-30.273,35.156,0.000,0
1593292826.701,-167.969,-31.250,-26.367,-159.180,0.000,0
1593292826.704,-183.594,-25.879,-26.367,-154.785,0.000,0
1593292826.708,-10.742,-24.414,-34.668,3.906,0.000,0
1593292826.712,180.176,-27.832,-36.133,166.504,0.000,0
1593292826.716,69.336,-23.926,-23.438,53.711,0.000,0
1593292826.720,-134.277,-23.926,-25.879,-145.996,0.000,0
1593292826.724,-190.430,-27.832,-36.133,-177.246,0.000,0
1593292826.728,-36.621,-30.273,-37.109,-40.039,0.000,0
1593292826.732,192.383,-33.691,-31.250,161.621,0.000,0
1593292826.736,93.750,-33.203,-28.320,79.590,0.000,0
1593292826.740,-152.832,-29.297,-28.809,-121.582,0.000,0
1593292826.744,-216.309,-30.273,-24.414,-163.574,0.000,0
1593292826.747,-81.543,-31.250,-25.391,-59.082,0.000,0
1593292826.751,166.016,-27.344,-28.320,155.273,0.000,0
1593292826.755,142.578,-25.391,-26.855,126.953,0.000,0
1593292826.759,-112.793,-25.879,-28.320,-99.121,0.000,0
1593292826.763,-193.848,-27.344,-30.273,-165.527,0.000,0
1593292826.767,-83.984,-24.902,-31.250,-64.941,0.000,0
1593292826.771,147.949,-23.438,-38.574,130.859,0.000,0
1593292826.775,155.273,-25.391,-40.527,128.418,0.000,0
1593292826.779,-82.031,-25.391,-37.109,-91.797,0.000,0
1593292826.783,-193.359,-30.762,-38.574,-181.152,0.000,0
1593292826.786,-132.812,-31.738,-45.410,-109.863,0.000,0
1593292826.790,109.375,-25.879,-41.016,84.473,0.000,0
1593292826.794,194.824,-23.926,-33.691,137.695,0.000,0
1593292826.798,-46.875,-21.484,-35.156,-58.105,0.000,0
1593292826.802,-193.848,-23.438,-34.668,-173.340,0.000,0
1593292826.806,-132.324,-25.879,-36.133,-131.836,0.000,0
1593292826.810,92.285,-27.344,-39.062,72.266,0.000,0
1593292826.814,192.383,-29.297,-39.062,172.852,0.000,0
1593292826.818,-24.414,-29.785,-39.551,-26.855,0.000,0
1593292826.822,-185.059,-27.832,-39.062,-167.480,0.000,0
1593292826.826,-156.250,-26.855,-41.504,-135.742,0.000,0
1593292826.829,60.547,-28.809,-40.527,51.270,0.000,0
1593292826.833,207.031,-30.273,-36.133,173.340,0.000,0
1593292826.837,-1.953,-35.156,-36.621,-9.277,0.000,0
1593292826.841,-191.406,-33.203,-33.691,-165.527,0.000,0
1593292826.845,-167.969,-25.391,-23.926,-146.484,0.000,0
1593292826.849,38.574,-23.926,-23.438,41.016,0.000,0
1593292826.853,225.586,-24.902,-27.832,189.941,0.000,0
1593292826.857,49.805,-26.855,-28.320,28.809,0.000,0
1593292826.861,-161.133,-29.297,-28.809,-133.301,0.000,1
1593292826.865,-155.762,-28.320,-26.367,-126.953,0.000,0
1593292826.869,15.625,-28.320,-25.879,19.531,0.000,0
1593292826.872,220.703,-26.855,-28.809,181.641,0.000,0
1593292826.876,77.148,-24.414,-27.832,64.453,0.000,0
1593292826.880,-164.551,-24.414,-29.785,-136.719,0.000,0
1593292826.884,-174.316,-22.461,-27.344,-157.715,0.000,0
1593292826.888,-18.066,-23.438,-27.344,-10.254,0.000,0
1593292826.892,191.895,-24.414,-31.250,170.410,0.000,0
1593292826.896,94.727,-24.902,-29.785,76.172,0.000,0
1593292826.900,-138.672,-29.785,-35.645,-128.418,0.000,0
1593292826.904,-191.406,-33.203,-38.574,-175.781,0.000,0
1593292826.908,-63.965,-29.785,-31.738,-46.875,0.000,0
1593292826.911,184.570,-25.879,-27.344,155.273,0.000,0
1593292826.915,130.371,-27.344,-29.297,113.770,0.000,0
1593292826.919,-125.977,-30.273,-26.855,-95.703,0.000,0
1593292826.923,-211.426,-27.344,-21.973,-169.922,0.000,0
1593292826.927,-106.934,-27.344,-27.344,-60.547,0.000,0
1593292826.931,137.207,-33.691,-32.227,132.812,0.000,0
1593292826.935,152.832,-35.156,-31.738,113.770,0.000,0
1593292826.939,-92.285,-30.273,-34.668,-102.539,0.000,0
1593292826.943,-204.590,-27.344,-34.668,-175.293,0.000,0
1593292826.947,-110.352,-23.926,-30.273,-79.102,0.000,0
1593292826.951,126.465,-19.531,-27.832,127.930,0.000,0
1593292826.954,178.223,-25.391,-28.320,155.762,0.000,0
1593292826.958,-58.105,-26.855,-30.273,-62.012,0.000,0
1593292826.962,-197.266,-23.926,-27.344,-162.598,0.000,0
1593292826.966,-136.719,-24.414,-28.809,-102.051,0.000,0
1593292826.970,101.562,-25.879,-31.250,86.914,0.000,0
1593292826.974,194.336,-24.414,-28.809,173.828,0.000,0
1593292826.978,-27.832,-20.508,-29.785,-21.973,0.000,0
1593292826.982,-188.477,-21.484,-32.227,-170.410,0.000,0
1593292826.986,-159.668,-27.344,-33.691,-138.672,0.000,0
1593292826.990,65.430,-23.926,-34.668,60.059,0.000,0
1593292826.994,202.637,-18.066,-27.832,179.688,0.000,0
1593292826.997,0.977,-19.531,-20.996,-16.602,0.000,0
1593292827.001,-176.758,-20.996,-21.973,-174.805,0.000,0
1593292827.005,-160.156,-22.949,-29.297,-147.461,0.000,0
1593292827.009,42.969,-24.902,-37.598,31.738,0.000,0
1593292827.013,209.473,-23.926,-33.691,166.504,0.000,0
1593292827.017,25.879,-24.414,-32.715,5.859,0.000,0
1593292827.021,-183.594,-24.902,-33.203,-161.133,0.000,0
1593292827.025,-187.988,-25.879,-34.668,-150.391,0.000,0
1593292827.029,-5.371,-25.391,-33.691,14.160,0.000,0
1593292827.033,205.078,-18.555,-30.273,171.875,0.000,0
1593292827.036,59.570,-19.043,-31.250,27.344,0.000,0
1593292827.040,-163.086,-17.090,-32.227,-155.273,0.000,0
1593292827.044,-177.734,-15.137,-38.086,-155.273,0.000,0
1593292827.048,-25.391,-18.066,-37.598,-15.137,0.000,0
1593292827.052,194.336,-17.090,-34.668,159.668,0.000,0
1593292827.056,86.426,-21.484,-31.250,47.363,0.000,0
1593292827.060,-152.344,-25.879,-28.809,-147.949,0.000,0
1593292827.064,-192.871,-24.414,-27.832,-161.621,0.000,0
1593292827.068,-60.547,-23.438,-29.785,-29.297,0.000,0
1593292827.072,187.012,-23.926,-37.598,164.062,0.000,0
1593292827.076,136.719,-22.949,-36.621,89.844,0.000,0
1593292827.079,-120.605,-20.020,-31.250,-114.258,0.000,0
1593292827.083,-194.336,-21.973,-29.785,-163.574,0.000,0
1593292827.087,-71.289,-23.926,-27.832,-48.828,0.000,0
1593292827.091,169.434,-24.414,-30.273,160.645,0.000,0
1593292827.095,134.766,-26.367,-34.668,116.699,0.000,0
1593292827.099,-117.676,-29.297,-32.715,-116.699,0.000,0
1593292827.103,-183.594,-29.297,-33.203,-179.688,0.000,0
1593292827.107,-106.934,-28.809,-39.062,-82.520,0.000,0
1593292827.111,143.066,-29.785,-40.527,116.699,0.000,0
1593292827.115,189.453,-32.227,-34.180,134.766,0.000,0
1593292827.119,-70.312,-34.180,-29.297,-76.172,0.000,0
1593292827.122,-190.430,-31.738,-30.762,-184.082,0.000,0
1593292827.126,-121.094,-25.391,-32.715,-111.816,0.000,0
1593292827.130,120.117,-26.367,-33.203,94.727,0.000,0
1593292827.134,198.242,-27.344,-34.180,144.043,0.000,0
1593292827.138,-37.598,-28.320,-35.645,-61.035,0.000,0
1593292827.142,-198.242,-27.832,-31.738,-178.223,0.000,0
1593292827.146,-153.809,-29.297,-32.715,-130.859,0.000,0
1593292827.150,60.547,-37.109,-33.691,63.477,0.000,0
1593292827.154,171.387,-38.086,-31.250,156.250,0.000,0
1593292827.158,-30.762,-35.156,-32.715,-35.156,0.000,0
1593292827.161,-199.219,-32.715,-32.227,-179.688,0.000,0
1593292827.165,-177.734,-31.738,-35.156,-152.344,0.000,0
1593292827.169,31.250,-29.297,-34.668,42.480,0.000,0
1593292827.173,180.176,-25.391,-32.227,151.855,0.000,0
1593292827.177,-18.066,-24.414,-29.785,-28.320,0.000,0
1593292827.181,-185.059,-24.414,-26.855,-169.434,0.000,0
1593292827.185,-176.758,-25.391,-28.320,-157.227,0.000,0
1593292827.189,8.789,-26.855,-30.273,23.926,0.000,0
1593292827.193,190.918,-28.320,-29.297,180.664,0.000,0
1593292827.197,30.273,-28.320,-28.809,22.461,0.000,0
1593292827.201,-178.711,-28.809,-29.785,-163.574,0.000,0
1593292827.204,-191.406,-29.785,-25.879,-150.879,0.000,0
1593292827.208,-28.809,-28.320,-27.344,7.324,0.000,0
1593292827.212,174.316,-28.320,-33.691,178.711,0.000,0
1593292827.216,74.219,-30.273,-33.203,64.941,0.000,0
1593292827.220,-150.879,-29.297,-28.320,-139.648,0.000,0
1593292827.224,-187.988,-28.320,-26.855,-166.504,0.000,0
1593292827.228,-39.551,-25.879,-28.809,-24.902,0.000,0
1593292827.232,187.988,-25.879,-30.273,166.016,0.000,0
1593292827.236,113.770,-25.879,-28.320,86.914,0.000,0
1593292827.240,-125.977,-23.926,-27.832,-126.953,0.000,0
1593292827.244,-187.012,-27.832,-26.855,-171.387,0.000,0
1593292827.247,-56.641,-31.738,-29.785,-49.805,0.000,0
1593292827.251,188.477,-27.832,-30.762,150.879,0.000,0
1593292827.255,152.832,-27.832,-26.855,111.816,0.000,0
1593292827.259,-72.754,-30.762,-28.809,-100.098,0.000,0
1593292827.263,-160.645,-27.832,-28.320,-175.781,0.000,0
1593292827.267,-75.684,-26.855,-25.879,-75.684,0.000,0
1593292827.271,160.156,-28.320,-23.438,141.113,0.000,0
1593292827.275,164.551,-24.902,-20.020,135.742,0.000,0
1593292827.279,-80.566,-21.484,-24.414,-75.195,0.000,0
1593292827.283,-197.266,-19.043,-25.879,-165.527,0.000,0
1593292827.286,-121.094,-21.973,-21.973,-93.262,0.000,0
1593292827.290,112.793,-21.973,-19.531,111.816,0.000,0
1593292827.294,166.504,-23.438,-26.367,148.438,0.000,0
1593292827.298,-68.359,-29.785,-35.645,-60.547,0.000,0
1593292827.302,-205.566,-26.855,-36.621,-178.223,0.000,0
1593292827.306,-138.672,-22.461,-33.691,-117.188,0.000,0
1593292827.310,88.379,-22.461,-32.715,87.402,0.000,0
1593292827.314,187.988,-24.414,-31.738,167.480,0.000,0
1593292827.318,-26.367,-23.926,-29.297,-27.344,0.000,0
1593292827.322,-192.871,-22.949,-27.832,-163.574,0.000,0
1593292827.326,-147.461,-21.484,-26.367,-114.746,0.000,0
1593292827.329,67.383,-18.066,-24.414,82.520,0.000,0
1593292827.333,213.379,-20.020,-24.902,187.988,0.000,0
1593292827.337,22.461,-25.391,-24.902,8.789,0.000,0
1593292827.341,-178.223,-21.973,-24.902,-145.996,0.000,0
1593292827.345,-160.645,-17.090,-27.344,-128.906,0.000,0
1593292827.349,46.875,-18.066,-27.832,43.945,0.000,0
1593292827.353,216.797,-17.578,-25.879,193.359,0.000,0
1593292827.357,44.434,-17.578,-26.855,35.156,0.000,0
1593292827.361,-169.922,-18.555,-32.227,-148.926,0.000,0
1593292827.365,-195.312,-21.484,-35.156,-144.043,0.000,0
1593292827.369,-27.344,-20.996,-30.762,19.531,0.000,0
1593292827.372,209.473,-20.508,-22.949,192.383,0.000,0
1593292827.376,87.402,-22.949,-21.484,56.641,0.000,0
1593292827.380,-159.668,-25.391,-23.926,-151.367,0.000,0
1593292827.384,-185.547,-24.414,-27.832,-163.086,0.000,0
1593292827.388,-27.344,-24.902,-32.715,-21.484,0.000,0
1593292827.392,190.430,-22.461,-32.227,167.969,0.000,0
1593292827.396,98.145,-19.531,-31.250,84.961,0.000,0
1593292827.400,-145.996,-24.902,-30.762,-144.043,0.000,0
1593292827.404,-209.961,-25.879,-30.273,-187.988,0.000,0
1593292827.408,-62.988,-25.879,-28.809,-40.527,0.000,0
1593292827.411,170.898,-28.809,-30.762,152.344,0.000,0
1593292827.415,120.117,-28.320,-35.645,92.773,0.000,0
1593292827.419,-137.695,-27.344,-37.109,-125.488,0.000,0
1593292827.423,-208.496,-23.438,-35.156,-186.035,0.000,0
1593292827.427,-80.078,-20.020,-28.320,-62.988,0.000,0
1593292827.431,154.785,-21.973,-27.344,140.625,0.000,0
1593292827.435,145.508,-22.461,-30.762,115.723,0.000,0
1593292827.439,-112.305,-26.367,-29.785,-102.051,0.000,0
1593292827.443,-198.242,-26.855,-27.832,-171.387,0.000,0
1593292827.447,-109.863,-26.855,-29.785,-81.543,0.000,0
1593292827.451,117.188,-29.297,-32.715,111.816,0.000,0
1593292827.454,170.898,-27.344,-30.762,142.090,0.000,0
1593292827.458,-73.730,-24.414,-28.320,-62.500,0.000,0
1593292827.462,-198.242,-24.414,-29.785,-166.016,0.000,0
1593292827.466,-127.930,-24.414,-32.715,-111.816,0.000,0
1593292827.470,110.352,-23.926,-32.227,93.750,0.000,0
1593292827.474,187.012,-24.414,-34.668,166.016,0.000,0
1593292827.478,-40.039,-20.996,-36.621,-42.480,0.000,0
1593292827.482,-187.988,-18.555,-30.762,-167.480,0.000,0
1593292827.486,-135.742,-17.578,-25.391,-122.559,0.000,0
1593292827.490,90.332,-18.555,-25.879,74.219,0.000,0
1593292827.494,217.285,-21.973,-27.344,176.270,0.000,0
1593292827.497,2.930,-23.438,-29.785,-17.090,0.000,0
1593292827.501,-190.918,-21.973,-31.250,-172.363,0.000,0
1593292827.505,-162.598,-20.996,-28.320,-143.066,0.000,0
1593292827.509,50.781,-20.020,-29.785,39.062,0.000,0
1593292827.513,212.402,-26.367,-37.598,171.387,0.000,0
1593292827.517,26.855,-31.738,-42.969,8.789,0.000,0
1593292827.521,-182.129,-29.785,-43.945,-156.738,0.000,0
1593292827.525,-180.664,-28.320,-39.062,-156.250,0.000,0
1593292827.529,6.348,-33.691,-38.574,-2.930,0.000,0
1593292827.533,194.824,-32.715,-38.574,171.875,0.000,0
1593292827.536,59.570,-32.715,-33.691,27.832,0.000,0
1593292827.540,-162.598,-37.109,-38.086,-180.176,0.000,0
1593292827.544,-191.895,-32.715,-40.039,-183.105,0.000,0
1593292827.548,-18.555,-30.273,-37.598,-25.879,0.000,0
1593292827.552,205.078,-30.762,-34.668,152.832,0.000,0
1593292827.556,95.215,-30.273,-31.738,59.570,0.000,0
1593292827.560,-153.809,-33.203,-32.715,-135.742,0.000,0
1593292827.564,-196.289,-34.668,-40.039,-169.922,0.000,0
1593292827.568,-53.223,-30.273,-44.922,-39.062,0.000,0
1593292827.572,179.688,-23.926,-39.551,154.297,0.000,0
1593292827.576,112.793,-25.879,-33.203,90.332,0.000,0
1593292827.579,-137.207,-27.344,-33.691,-124.023,0.000,0
1593292827.583,-208.496,-25.391,-34.668,-176.758,0.000,0
1593292827.587,-86.914,-23.438,-28.809,-56.641,0.000,0
1593292827.591,168.945,-24.414,-28.320,145.508,0.000,0
1593292827.595,146.973,-24.414,-32.715,122.559,0.000,0
1593292827.599,-105.469,-28.809,-34.668,-99.121,0.000,0
1593292827.603,-194.824,-28.809,-31.738,-179.688,0.000,0
1593292827.607,-99.121,-21.973,-28.320,-74.707,0.000,0
1593292827.611,146.484,-20.996,-33.691,130.859,0.000,0
1593292827.615,165.039,-21.973,-37.598,143.066,0.000,0
1593292827.619,-86.426,-24.902,-35.156,-69.824,0.000,0
1593292827.622,-220.215,-25.879,-32.227,-176.270,0.000,0
1593292827.626,-147.949,-23.438,-30.762,-111.328,0.000,0
1593292827.630,92.773,-21.484,-30.762,97.168,0.000,0
1593292827.634,172.363,-21.484,-29.785,160.156,0.000,0
1593292827.638,-55.664,-20.996,-30.762,-52.246,0.000,0
1593292827.642,-200.684,-24.414,-34.180,-174.805,0.000,0
1593292827.646,-144.531,-26.855,-30.273,-108.398,0.000,0
1593292827.650,72.266,-23.926,-29.297,89.355,0.000,0
1593292827.654,184.570,-27.344,-37.109,171.875,0.000,0
1593292827.658,-25.879,-29.297,-34.668,-27.832,0.000,0
1593292827.661,-195.312,-20.996,-26.367,-172.363,0.000,0
1593292827.665,-176.758,-21.484,-23.926,-139.160,0.000,0
1593292827.669,34.668,-24.414,-24.414,35.156,0.000,0
1593292827.673,197.266,-26.855,-25.391,172.363,0.000,0
1593292827.677,6.348,-32.715,-30.762,-1.953,0.000,0
1593292827.681,-187.988,-30.762,-31.738,-176.758,0.000,0
1593292827.685,-167.480,-26.855,-29.785,-145.020,0.000,0
1593292827.689,19.043,-26.367,-34.180,29.785,0.000,0
1593292827.693,190.430,-27.344,-33.691,173.828,0.000,0
1593292827.697,33.203,-24.414,-33.691,23.926,0.000,0
1593292827.701,-167.480,-25.879,-33.691,-152.344,0.000,0
1593292827.704,-181.152,-31.250,-33.691,-148.438,0.000,0
1593292827.708,-25.879,-33.691,-31.738,3.418,0.000,0
1593292827.712,189.941,-25.879,-30.273,181.152,0.000,2
1593292827.716,73.242,-21.973,-32.715,71.289,0.000,0
1593292827.720,-154.297,-19.531,-31.738,-131.348,0.000,0
1593292827.724,-190.918,-15.137,-26.367,-152.832,0.000,0
1593292827.728,-42.969,-16.602,-27.832,-20.996,0.000,0
1593292827.732,192.871,-19.043,-32.227,165.527,0.000,0
1593292827.736,104.492,-23.438,-28.809,87.402,0.000,0
1593292827.740,-146.973,-27.344,-28.809,-131.836,0.000,0
1593292827.744,-201.660,-25.879,-31.738,-185.547,0.000,0
1593292827.747,-80.566,-27.344,-37.109,-69.336,0.000,0
1593292827.751,155.762,-32.715,-40.527,126.953,0.000,0
1593292827.755,125.488,-34.668,-41.016,94.727,0.000,0
1593292827.759,-127.441,-33.691,-40.039,-107.910,0.000,0
1593292827.763,-212.891,-31.250,-37.109,-174.805,0.000,0
1593292827.767,-96.680,-28.809,-38.574,-77.637,0.000,0
1593292827.771,140.137,-26.855,-36.621,127.441,0.000,0
1593292827.775,145.020,-28.809,-30.273,121.582,0.000,0
1593292827.779,-82.031,-25.879,-32.227,-85.449,0.000,0
1593292827.783,-193.359,-21.973,-33.203,-166.992,0.000,0
1593292827.786,-118.652,-22.949,-32.715,-90.332,0.000,0
1593292827.790,125.488,-24.414,-32.715,122.559,0.000,0
1593292827.794,187.500,-25.391,-29.785,163.086,0.000,0
1593292827.798,-62.988,-27.832,-29.297,-53.711,0.000,0
1593292827.802,-204.102,-31.738,-32.715,-163.086,0.000,0
1593292827.806,-132.324,-30.762,-34.180,-98.145,0.000,0
1593292827.810,87.891,-28.320,-32.227,92.285,0.000,0
1593292827.814,187.988,-29.297,-32.227,174.316,0.000,0
1593292827.818,-32.715,-27.832,-36.621,-30.762,0.000,0
1593292827.822,-204.102,-28.320,-38.086,-164.551,0.000,0
1593292827.826,-173.828,-30.762,-32.227,-125.488,0.000,0
1593292827.829,64.941,-29.785,-32.227,55.176,0.000,0
1593292827.833,212.402,-29.785,-36.621,172.852,0.000,0
1593292827.837,-6.348,-31.250,-39.062,-5.371,0.000,0
1593292827.841,-193.848,-29.785,-40.527,-165.527,0.000,0
1593292827.845,-178.223,-25.879,-35.156,-146.484,0.000,0
1593292827.849,29.785,-21.484,-32.715,34.668,0.000,0
1593292827.853,202.637,-23.926,-37.109,175.781,0.000,0
1593292827.857,31.250,-26.855,-32.715,18.066,0.000,0
1593292827.861,-175.293,-25.391,-25.391,-160.645,0.000,0
1593292827.865,-191.406,-28.320,-24.902,-151.855,0.000,0
1593292827.869,-8.789,-28.320,-24.902,16.602,0.000,0
1593292827.872,187.500,-29.785,-30.273,183.594,0.000,0
1593292827.876,47.363,-34.180,-37.598,29.785,0.000,0
1593292827.880,-153.809,-29.297,-35.645,-172.363,0.000,0
1593292827.884,-179.688,-23.438,-39.062,-172.852,0.000,0
1593292827.888,-23.926,-24.414,-47.363,-38.086,0.000,0
1593292827.892,201.172,-23.438,-44.922,156.250,0.000,0
1593292827.896,101.074,-18.555,-36.621,63.965,0.000,0
1593292827.900,-141.602,-20.020,-38.574,-150.391,0.000,0
1593292827.904,-198.730,-25.391,-41.016,-182.617,0.000,0
1593292827.908,-58.594,-29.297,-42.480,-50.293,0.000,0
1593292827.911,180.176,-33.203,-41.992,158.691,0.000,0
1593292827.915,120.117,-38.086,-41.016,99.609,0.000,0
1593292827.919,-126.953,-41.504,-43.457,-121.094,0.000,0
1593292827.923,-195.801,-37.109,-40.039,-175.781,0.000,0
1593292827.927,-81.055,-31.250,-38.086,-70.312,0.000,0
1593292827.931,151.855,-28.809,-38.086,134.766,0.000,0
1593292827.935,148.438,-27.344,-40.039,122.070,0.000,0
1593292827.939,-93.262,-28.320,-44.434,-103.027,0.000,0
1593292827.943,-213.867,-30.273,-48.828,-193.359,0.000,0
1593292827.947,-129.883,-25.391,-44.434,-106.934,0.000,0
1593292827.951,112.793,-22.949,-36.621,106.445,0.000,0
1593292827.954,168.457,-30.762,-42.480,127.930,0.000,0
1593292827.958,-79.590,-35.156,-41.992,-81.055,0.000,0
1593292827.962,-211.914,-34.180,-34.668,-170.410,0.000,0
1593292827.966,-126.465,-32.715,-36.133,-103.516,0.000,0
1593292827.970,115.234,-34.180,-35.156,90.332,0.000,0
1593292827.974,196.289,-34.180,-36.133,153.320,0.000,0
1593292827.978,-26.367,-34.668,-39.551,-49.805,0.000,0
1593292827.982,-176.758,-32.227,-37.109,-172.852,0.000,0
1593292827.986,-146.973,-30.273,-37.109,-133.301,0.000,0
1593292827.990,88.867,-30.273,-38.086,66.406,0.000,0
1593292827.994,210.938,-28.320,-41.016,167.480,0.000,0
1593292827.997,-9.277,-24.902,-35.156,-19.531,0.000,0
1593292828.001,-181.152,-21.973,-30.762,-154.785,0.000,0
1593292828.005,-165.039,-22.461,-33.203,-136.719,0.000,0
1593292828.009,45.410,-22.949,-33.203,41.992,0.000,0
1593292828.013,206.055,-24.414,-31.738,183.105,0.000,0
1593292828.017,25.879,-26.855,-32.715,16.113,0.000,0
1593292828.021,-184.570,-28.320,-34.180,-158.203,0.000,0
1593292828.025,-187.988,-29.785,-34.180,-152.832,0.000,0
1593292828.029,7.324,-29.297,-32.715,21.973,0.000,0
1593292828.033,184.570,-26.367,-33.203,181.152,0.000,0
1593292828.036,39.551,-31.250,-36.621,27.832,0.000,0
1593292828.040,-162.109,-35.645,-42.480,-152.344,0.000,0
1593292828.044,-181.152,-29.785,-41.016,-150.879,0.000,0
1593292828.048,-0.488,-26.855,-37.109,-3.418,0.000,0
1593292828.052,208.008,-28.809,-34.668,169.922,0.000,0
1593292828.056,99.609,-25.391,-32.715,63.965,0.000,0
1593292828.060,-135.254,-22.949,-37.598,-140.137,0.000,0
1593292828.064,-194.336,-23.926,-40.527,-170.898,0.000,0
1593292828.068,-44.434,-25.391,-38.086,-38.086,0.000,0
1593292828.072,185.059,-28.809,-38.574,158.203,0.000,0
1593292828.076,113.770,-25.391,-40.527,82.520,0.000,0
1593292828.079,-128.418,-26.855,-41.016,-139.160,0.000,0
1593292828.083,-195.312,-28.320,-41.504,-187.500,0.000,0
1593292828.087,-84.961,-26.367,-44.922,-67.871,0.000,0
1593292828.091,152.344,-24.414,-44.434,141.113,0.000,0
1593292828.095,144.043,-22.461,-39.551,120.605,0.000,0
1593292828.099,-107.422,-22.461,-36.133,-92.285,0.000,0
1593292828.103,-222.168,-27.832,-33.691,-173.340,0.000,0
1593292828.107,-123.535,-30.273,-33.203,-78.613,0.000,0
1593292828.111,110.352,-29.297,-32.227,124.023,0.000,0
1593292828.115,127.441,-30.762,-32.227,128.418,0.000,0
1593292828.119,-92.773,-25.879,-31.738,-70.801,0.000,0
1593292828.122,-197.754,-22.949,-32.715,-167.480,0.000,0
1593292828.126,-132.324,-22.949,-34.668,-95.703,0.000,0
1593292828.130,103.516,-23.438,-35.645,111.328,0.000,0
1593292828.134,176.270,-27.344,-35.156,154.297,0.000,0
1593292828.138,-47.852,-26.855,-35.156,-55.176,0.000,0
1593292828.142,-190.918,-22.949,-35.645,-170.898,0.000,0
1593292828.146,-143.555,-28.320,-39.551,-116.699,0.000,0
1593292828.150,83.984,-28.320,-43.457,71.289,0.000,0
1593292828.154,215.332,-22.949,-40.527,162.109,0.000,0
1593292828.158,-0.977,-22.949,-36.621,-21.484,0.000,0
1593292828.161,-183.594,-24.902,-36.133,-160.645,0.000,0
1593292828.165,-155.273,-27.344,-37.109,-124.512,0.000,0
1593292828.169,58.105,-23.438,-38.574,62.988,0.000,0
1593292828.173,212.891,-22.949,-38.574,179.688,0.000,0
1593292828.177,20.508,-24.414,-35.156,1.465,0.000,0
1593292828.181,-172.852,-22.949,-30.273,-166.992,0.000,0
1593292828.185,-165.527,-22.461,-29.785,-145.996,0.000,0
1593292828.189,16.602,-26.367,-31.738,28.809,0.000,0
1593292828.193,206.543,-25.391,-31.250,182.617,0.000,0
1593292828.197,51.758,-26.367,-29.785,38.086,0.000,0
1593292828.201,-186.035,-31.738,-33.203,-146.973,0.000,0
1593292828.204,-213.379,-33.691,-37.109,-157.227,0.000,0
1593292828.208,-35.645,-36.621,-40.527,-4.883,0.000,0
1593292828.212,181.641,-36.621,-43.945,172.852,0.000,0
1593292828.216,59.570,-34.668,-39.062,54.199,0.000,0
1593292828.220,-166.992,-33.691,-33.691,-148.926,0.000,0
1593292828.224,-200.195,-31.738,-32.227,-171.387,0.000,0
1593292828.228,-42.480,-27.832,-34.668,-22.461,0.000,0
1593292828.232,186.035,-31.738,-40.039,164.062,0.000,0
1593292828.236,75.684,-35.645,-39.062,75.195,0.000,0
1593292828.240,-163.574,-32.715,-36.133,-131.836,0.000,0
1593292828.244,-196.777,-32.715,-33.203,-172.363,0.000,0
1593292828.247,-67.383,-29.785,-34.668,-44.922,0.000,0
1593292828.251,166.016,-28.809,-39.062,152.832,0.000,0
1593292828.255,131.348,-32.227,-38.574,99.609,0.000,0
1593292828.259,-116.699,-35.156,-37.109,-119.141,0.000,0
1593292828.263,-210.938,-38.574,-38.574,-188.477,0.000,0
1593292828.267,-87.891,-41.504,-40.039,-73.730,0.000,0
1593292828.271,163.574,-39.062,-38.574,137.695,0.000,0
1593292828.275,151.855,-37.598,-36.133,123.047,0.000,0
1593292828.279,-97.656,-34.180,-36.133,-101.562,0.000,0
1593292828.283,-206.543,-28.320,-38.086,-200.684,0.000,0
1593292828.286,-102.051,-32.715,-39.062,-104.004,0.000,0
1593292828.290,144.043,-33.203,-33.691,114.746,0.000,0
1593292828.294,178.711,-32.715,-32.227,138.184,0.000,0
1593292828.298,-62.012,-35.156,-37.598,-78.125,0.000,0
1593292828.302,-203.125,-30.273,-32.715,-182.129,0.000,0
1593292828.306,-152.344,-32.715,-28.809,-115.234,0.000,0
1593292828.310,79.102,-39.551,-34.180,87.402,0.000,0
1593292828.314,190.918,-39.551,-32.715,172.363,0.000,0
1593292828.318,-28.320,-36.133,-28.809,-33.691,0.000,0
1593292828.322,-190.430,-32.715,-33.691,-171.387,0.000,0
1593292828.326,-152.344,-28.809,-35.645,-116.211,0.000,0
1593292828.329,67.871,-23.926,-26.855,85.938,0.000,0
1593292828.333,211.914,-21.973,-25.879,200.684,0.000,0
1593292828.337,12.207,-28.809,-30.273,9.766,0.000,0
1593292828.341,-185.059,-32.715,-30.762,-158.203,0.000,0
1593292828.345,-176.270,-30.273,-30.273,-133.789,0.000,0
1593292828.349,34.180,-26.855,-31.250,52.246,0.000,0
1593292828.353,217.773,-26.855,-29.297,191.406,0.000,0
1593292828.357,45.898,-32.227,-31.250,27.344,0.000,0
1593292828.361,-176.270,-28.809,-31.738,-154.785,0.000,0
1593292828.365,-168.945,-27.344,-31.738,-129.883,0.000,0
1593292828.369,32.227,-30.762,-36.133,41.016,0.000,0
1593292828.372,196.777,-31.738,-36.133,184.082,0.000,0
1593292828.376,56.641,-27.832,-29.785,64.941,0.000,0
1593292828.380,-156.738,-28.809,-29.297,-134.277,0.000,0
1593292828.384,-196.289,-30.762,-31.250,-155.762,0.000,0
1593292828.388,-32.715,-24.414,-30.273,-5.859,0.000,0
1593292828.392,193.848,-24.414,-28.320,181.152,0.000,0
1593292828.396,89.844,-28.809,-30.762,72.754,0.000,0
1593292828.400,-145.996,-27.344,-32.715,-137.695,0.000,0
1593292828.404,-191.406,-28.809,-33.203,-161.133,0.000,0
1593292828.408,-51.758,-30.273,-27.832,-36.621,0.000,0
1593292828.411,172.363,-27.344,-22.949,161.133,0.000,0
1593292828.415,124.023,-29.297,-22.949,113.770,0.000,0
1593292828.419,-109.375,-31.738,-24.414,-103.516,0.000,0
1593292828.423,-192.871,-29.785,-24.902,-170.410,0.000,0
1593292828.427,-82.520,-30.273,-25.879,-59.082,0.000,0
1593292828.431,160.156,-32.227,-30.762,150.879,0.000,0
1593292828.435,146.973,-31.250,-30.273,124.023,0.000,0
1593292828.439,-89.355,-29.297,-28.320,-98.145,0.000,0
1593292828.443,-183.105,-25.879,-31.250,-167.969,0.000,1
1593292828.447,-101.562,-24.902,-34.668,-77.148,0.000,0
1593292828.451,138.672,-26.855,-36.133,130.371,0.000,0
1593292828.454,187.012,-24.414,-37.109,150.391,0.000,0
1593292828.458,-60.547,-22.461,-31.738,-65.430,0.000,0
1593292828.462,-196.777,-25.879,-28.320,-171.387,0.000,0
1593292828.466,-133.301,-26.367,-27.832,-108.398,0.000,0
1593292828.470,103.516,-25.879,-28.809,84.473,0.000,0
1593292828.474,176.758,-31.250,-33.203,137.695,0.000,0
1593292828.478,-51.758,-34.180,-32.715,-59.570,0.000,0
1593292828.482,-197.754,-30.273,-29.297,-187.012,0.000,0
1593292828.486,-154.297,-25.391,-31.738,-138.184,0.000,0
1593292828.490,72.754,-24.414,-34.180,65.430,0.000,0
1593292828.494,210.938,-19.043,-29.785,175.293,0.000,0
1593292828.497,7.812,-14.160,-27.344,-3.906,0.000,0
1593292828.501,-167.480,-15.137,-30.273,-157.715,0.000,0
1593292828.505,-148.438,-21.484,-36.133,-135.254,0.000,0
1593292828.509,38.086,-24.902,-43.945,48.340,0.000,0
1593292828.513,206.055,-24.414,-38.574,181.641,0.000,0
1593292828.517,37.598,-25.879,-30.273,20.508,0.000,0
1593292828.521,-173.828,-26.855,-32.715,-154.297,0.000,0
1593292828.525,-185.547,-26.855,-36.133,-147.949,0.000,0
1593292828.529,1.953,-25.391,-34.668,19.043,0.000,0
1593292828.533,197.266,-26.855,-37.109,184.082,0.000,0
1593292828.536,53.711,-27.832,-36.621,42.480,0.000,0
1593292828.540,-166.504,-24.902,-27.832,-152.832,0.000,0
1593292828.544,-183.594,-22.461,-31.250,-161.621,0.000,0
1593292828.548,-12.695,-20.508,-34.180,-9.277,0.000,0
1593292828.552,198.242,-20.020,-29.785,174.805,0.000,0
1593292828.556,88.867,-21.484,-35.156,62.012,0.000,0
1593292828.560,-146.484,-25.391,-38.086,-148.926,0.000,0
1593292828.564,-199.219,-28.320,-31.250,-175.293,0.000,0
1593292828.568,-46.387,-23.438,-26.367,-30.273,0.000,0
1593292828.572,192.383,-19.043,-24.902,167.480,0.000,0
1593292828.576,112.305,-20.020,-27.344,92.773,0.000,0
1593292828.579,-128.906,-20.508,-32.715,-120.117,0.000,0
1593292828.583,-187.500,-21.484,-36.133,-166.504,0.000,0
1593292828.587,-57.129,-21.973,-33.691,-46.875,0.000,0
1593292828.591,174.316,-20.996,-30.762,152.832,0.000,0
1593292828.595,147.461,-23.438,-25.391,118.652,0.000,0
1593292828.599,-104.492,-24.414,-24.414,-100.098,0.000,0
1593292828.603,-196.289,-22.461,-25.879,-170.898,0.000,0
1593292828.607,-96.680,-23.926,-24.414,-71.289,0.000,0
1593292828.611,141.602,-24.902,-30.273,131.836,0.000,0
1593292828.615,162.109,-28.809,-32.715,135.254,0.000,0
1593292828.619,-90.332,-29.297,-26.855,-81.543,0.000,0
1593292828.622,-207.520,-25.391,-27.832,-180.664,0.000,0
1593292828.626,-140.137,-25.879,-28.809,-94.238,0.000,0
1593292828.630,101.074,-22.949,-30.762,110.352,0.000,0
1593292828.634,178.223,-21.973,-35.645,157.227,0.000,0
1593292828.638,-48.340,-22.949,-32.715,-39.551,0.000,0
1593292828.642,-189.453,-18.555,-23.438,-168.457,0.000,0
1593292828.646,-146.973,-18.066,-22.461,-117.676,0.000,0
1593292828.650,83.496,-20.996,-29.785,85.938,0.000,0
1593292828.654,204.590,-17.578,-28.320,176.270,0.000,0
1593292828.658,-20.508,-14.160,-28.809,-8.789,0.000,0
1593292828.661,-189.453,-15.625,-33.691,-154.297,0.000,0
1593292828.665,-152.344,-15.625,-27.832,-125.000,0.000,0
1593292828.669,55.664,-12.695,-21.973,68.848,0.000,0
1593292828.673,205.078,-12.695,-21.973,187.988,0.000,0
1593292828.677,17.090,-11.230,-19.531,9.766,0.000,0
1593292828.681,-166.504,-10.742,-26.855,-141.113,0.000,0
1593292828.685,-160.156,-8.789,-29.785,-127.930,0.000,0
1593292828.689,36.133,-5.371,-27.344,53.711,0.000,0
1593292828.693,224.121,-6.836,-25.879,210.938,0.000,0
1593292828.697,61.035,-12.695,-22.461,47.363,0.000,0
1593292828.701,-157.227,-19.043,-23.926,-151.367,0.000,0
1593292828.704,-181.152,-18.555,-25.879,-162.109,0.000,0
1593292828.708,-14.160,-17.090,-25.391,-0.977,0.000,0
1593292828.712,199.707,-19.531,-28.320,182.617,0.000,0
1593292828.716,78.613,-19.043,-29.785,60.059,0.000,0
1593292828.720,-146.973,-21.484,-29.297,-143.555,0.000,0
1593292828.724,-187.012,-22.949,-32.227,-162.109,0.000,0
1593292828.728,-40.039,-20.996,-35.156,-21.484,0.000,0
1593292828.732,178.223,-22.461,-36.621,171.387,0.000,0
1593292828.736,102.051,-22.461,-31.738,81.543,0.000,0
1593292828.740,-140.137,-20.996,-27.832,-134.766,0.000,0
1593292828.744,-208.984,-24.902,-34.668,-166.504,0.000,0
1593292828.747,-67.871,-29.785,-34.668,-39.551,0.000,0
1593292828.751,170.410,-30.273,-35.645,157.227,0.000,0
1593292828.755,146.484,-28.809,-36.621,110.840,0.000,0
1593292828.759,-115.234,-29.785,-34.668,-116.699,0.000,0
1593292828.763,-210.449,-26.367,-35.156,-177.246,0.000,0
1593292828.767,-80.566,-21.484,-31.250,-60.547,0.000,0
1593292828.771,158.691,-23.438,-32.227,143.066,0.000,0
1593292828.775,166.016,-27.344,-33.691,136.230,0.000,0
1593292828.779,-82.520,-30.273,-34.668,-80.078,0.000,0
1593292828.783,-194.336,-27.832,-36.133,-163.086,0.000,0
1593292828.786,-109.863,-26.855,-35.156,-89.844,0.000,0
1593292828.790,119.629,-28.809,-36.621,107.422,0.000,0
1593292828.794,172.363,-29.297,-34.180,143.555,0.000,0
1593292828.798,-65.918,-26.367,-32.227,-68.359,0.000,0
1593292828.802,-205.078,-28.320,-35.645,-176.270,0.000,0
1593292828.806,-140.625,-23.926,-30.762,-108.887,0.000,0
1593292828.810,88.379,-18.066,-32.227,88.379,0.000,0
1593292828.814,184.082,-22.461,-37.598,156.738,0.000,0
1593292828.818,-34.668,-24.902,-33.203,-49.805,0.000,0
1593292828.822,-188.477,-23.926,-32.715,-185.059,0.000,0
1593292828.826,-155.273,-24.902,-38.086,-140.625,0.000,0
1593292828.829,57.129,-29.297,-39.062,52.734,0.000,0
1593292828.833,203.125,-32.227,-35.156,172.363,0.000,0
1593292828.837,-7.324,-30.762,-30.273,-10.742,0.000,0
1593292828.841,-192.383,-25.879,-27.344,-167.969,0.000,0
1593292828.845,-175.293,-25.391,-29.297,-149.414,0.000,0
1593292828.849,19.531,-25.879,-27.832,28.320,0.000,0
1593292828.853,195.312,-29.297,-28.809,174.805,0.000,0
1593292828.857,29.785,-29.785,-31.738,19.043,0.000,0
1593292828.861,-183.105,-30.762,-33.203,-165.039,0.000,0
1593292828.865,-187.012,-32.227,-37.109,-155.762,0.000,0
1593292828.869,2.930,-30.273,-35.645,15.625,0.000,0
1593292828.872,202.637,-27.344,-32.227,178.223,0.000,0
1593292828.876,55.664,-25.391,-33.691,48.340,0.000,0
1593292828.880,-178.223,-29.297,-36.621,-144.531,0.000,0
1593292828.884,-204.102,-29.297,-36.133,-158.203,0.000,0
1593292828.888,-38.574,-27.344,-38.574,-11.719,0.000,0
1593292828.892,195.801,-25.391,-40.527,172.363,0.000,0
1593292828.896,90.332,-25.391,-38.086,71.777,0.000,0
1593292828.900,-150.391,-28.320,-37.109,-137.695,0.000,0
1593292828.904,-193.359,-35.645,-37.598,-172.363,0.000,0
1593292828.908,-65.430,-37.109,-38.086,-44.434,0.000,0
1593292828.911,175.293,-30.762,-38.574,162.598,0.000,0
1593292828.915,130.371,-26.367,-35.645,105.957,0.000,0
1593292828.919,-126.953,-27.344,-37.109,-118.164,0.000,0
1593292828.923,-209.961,-33.691,-42.969,-174.805,0.000,0
1593292828.927,-83.984,-35.156,-42.480,-58.594,0.000,0
1593292828.931,147.461,-32.715,-38.086,131.836,0.000,0
1593292828.935,134.277,-31.738,-38.086,104.980,0.000,0
1593292828.939,-104.004,-34.180,-40.527,-101.562,0.000,0
1593292828.943,-216.797,-35.645,-40.527,-180.176,0.000,0
1593292828.947,-117.188,-35.156,-36.133,-84.473,0.000,0
1593292828.951,131.836,-36.621,-34.180,120.117,0.000,0
1593292828.954,172.852,-36.133,-36.133,135.742,0.000,0
1593292828.958,-67.871,-34.180,-30.273,-64.941,0.000,0
1593292828.962,-196.777,-34.668,-24.902,-162.598,0.000,0
1593292828.966,-128.418,-35.156,-28.320,-101.562,0.000,0
1593292828.970,99.609,-28.320,-32.227,93.262,0.000,0
1593292828.974,176.758,-25.391,-32.227,150.391,0.000,0
1593292828.978,-49.805,-29.785,-35.645,-50.293,0.000,0
1593292828.982,-199.219,-28.809,-38.086,-182.617,0.000,0
1593292828.986,-158.691,-26.367,-37.598,-131.348,0.000,0
1593292828.990,70.801,-23.438,-39.062,60.547,0.000,0
1593292828.994,195.312,-26.367,-40.039,163.086,0.000,0
1593292828.997,-0.488,-30.273,-35.645,-24.414,0.000,0
1593292829.001,-173.828,-31.250,-37.109,-182.617,0.000,0
1593292829.005,-163.574,-32.227,-39.062,-145.508,0.000,0
1593292829.009,54.199,-28.320,-37.109,49.316,0.000,0
1593292829.013,213.379,-29.785,-37.109,177.734,0.000,0
1593292829.017,28.809,-33.203,-32.715,11.230,0.000,0
1593292829.021,-167.480,-31.250,-34.668,-151.855,0.000,0
1593292829.025,-169.434,-28.320,-37.598,-132.324,0.000,0
1593292829.029,15.625,-28.809,-34.668,27.344,0.000,0
1593292829.033,211.426,-30.273,-33.691,174.805,0.000,0
1593292829.036,62.500,-32.715,-36.133,36.621,0.000,0
1593292829.040,-169.434,-33.691,-37.598,-143.555,0.000,0
1593292829.044,-193.848,-29.785,-35.645,-145.508,0.000,0
1593292829.048,-10.254,-28.809,-36.621,1.465,0.000,0
1593292829.052,202.637,-33.203,-39.062,175.781,0.000,0
1593292829.056,73.730,-30.762,-43.457,66.895,0.000,0
1593292829.060,-156.738,-29.297,-41.016,-137.695,0.000,0
1593292829.064,-194.336,-34.668,-37.109,-157.227,0.000,0
1593292829.068,-49.316,-37.109,-39.551,-23.926,0.000,0
1593292829.072,178.711,-31.738,-36.621,159.668,0.000,0
1593292829.076,112.305,-29.785,-31.250,94.727,0.000,0
1593292829.079,-137.207,-31.250,-29.785,-119.629,0.000,0
1593292829.083,-192.383,-31.250,-33.203,-168.457,0.000,0
1593292829.087,-70.312,-32.227,-40.527,-51.758,0.000,0
1593292829.091,153.809,-28.809,-42.480,145.996,0.000,0
1593292829.095,136.719,-25.391,-41.504,117.188,0.000,0
1593292829.099,-107.422,-24.414,-37.109,-92.285,0.000,0
1593292829.103,-207.031,-27.832,-39.062,-169.922,0.000,0
1593292829.107,-106.445,-30.762,-45.410,-73.730,0.000,0
1593292829.111,134.277,-27.344,-40.527,138.184,0.000,0
1593292829.115,162.109,-27.344,-44.922,143.066,0.000,0
1593292829.119,-81.055,-30.273,-50.293,-88.867,0.000,0
1593292829.122,-206.055,-29.297,-47.852,-184.570,0.000,0
1593292829.126,-125.488,-28.320,-43.945,-100.586,0.000,0
1593292829.130,104.980,-27.832,-42.480,95.703,0.000,0
1593292829.134,184.082,-28.320,-40.527,144.531,0.000,0
1593292829.138,-37.598,-27.832,-37.109,-54.199,0.000,0
1593292829.142,-196.289,-30.762,-38.086,-170.898,0.000,0
1593292829.146,-153.320,-37.598,-41.992,-115.234,0.000,0
1593292829.150,68.359,-37.598,-44.922,76.660,0.000,0
1593292829.154,180.176,-31.250,-41.992,158.691,0.000,0
1593292829.158,-31.738,-28.320,-37.109,-27.832,0.000,0
1593292829.161,-203.125,-31.250,-36.621,-164.551,0.000,0
1593292829.165,-175.781,-32.715,-40.527,-126.465,0.000,0
1593292829.169,41.992,-32.227,-45.410,62.988,0.000,0
1593292829.173,198.242,-30.273,-40.039,178.223,0.000,0
1593292829.177,20.020,-26.855,-38.086,-2.441,0.000,0
1593292829.181,-168.945,-29.297,-39.062,-166.016,0.000,0
1593292829.185,-168.457,-30.273,-38.574,-141.113,0.000,0
1593292829.189,33.691,-25.879,-35.645,39.062,0.000,0
1593292829.193,222.656,-26.367,-38.086,184.082,0.000,0
1593292829.197,57.617,-27.832,-41.992,32.227,0.000,0
1593292829.201,-174.316,-29.297,-37.598,-157.715,0.000,0
1593292829.204,-159.668,-30.762,-35.156,-131.836,0.000,0
1593292829.208,35.645,-32.715,-36.133,39.551,0.000,0
1593292829.212,204.590,-32.715,-34.668,174.316,0.000,0
1593292829.216,71.777,-34.180,-37.598,56.152,0.000,0
1593292829.220,-172.852,-32.227,-38.574,-151.855,0.000,0
1593292829.224,-196.777,-30.273,-38.086,-168.457,0.000,0
1593292829.228,-35.645,-28.320,-39.062,-18.066,0.000,0
1593292829.232,177.246,-24.414,-37.598,150.879,0.000,0
1593292829.236,96.191,-26.855,-39.551,63.477,0.000,0
1593292829.240,-139.160,-28.809,-44.434,-132.812,0.000,0
1593292829.244,-200.195,-34.668,-48.828,-172.363,0.000,0
1593292829.247,-73.242,-34.668,-43.945,-45.410,0.000,0
1593292829.251,168.945,-30.273,-37.598,164.551,0.000,0
1593292829.255,127.441,-30.273,-36.133,113.281,0.000,0
1593292829.259,-118.652,-27.832,-41.504,-107.910,0.000,0
1593292829.263,-200.195,-26.367,-37.109,-165.039,0.000,0
1593292829.267,-98.145,-28.320,-33.691,-63.965,0.000,0
1593292829.271,146.973,-28.320,-36.133,132.324,0.000,0
1593292829.275,153.809,-27.832,-34.668,123.535,0.000,0
1593292829.279,-104.492,-27.344,-31.250,-90.820,0.000,0
1593292829.283,-192.383,-24.902,-32.715,-175.293,0.000,0
1593292829.286,-107.422,-26.855,-35.156,-87.402,0.000,0
1593292829.290,107.910,-32.715,-34.180,112.305,0.000,0
1593292829.294,167.969,-36.133,-35.156,132.812,0.000,0
1593292829.298,-69.336,-32.227,-37.598,-90.332,0.000,0
1593292829.302,-190.430,-26.367,-38.574,-183.105,0.000,1
1593292829.306,-110.352,-25.879,-34.668,-100.586,0.000,0
1593292829.310,102.539,-27.344,-36.621,77.148,0.000,0
1593292829.314,197.754,-28.320,-40.039,149.902,0.000,0
1593292829.318,-25.391,-28.809,-37.109,-34.180,0.000,0
1593292829.322,-179.199,-26.367,-28.320,-154.297,0.000,0
1593292829.326,-141.113,-28.320,-29.297,-113.281,0.000,0
1593292829.329,73.242,-32.715,-36.133,70.801,0.000,0
1593292829.333,204.102,-33.691,-33.691,175.781,0.000,0
1593292829.337,1.953,-32.227,-32.227,-12.695,0.000,0
1593292829.341,-186.035,-30.762,-31.250,-167.969,0.000,0
1593292829.345,-173.828,-29.785,-33.203,-140.137,0.000,0
1593292829.349,32.227,-26.855,-33.691,42.480,0.000,0
1593292829.353,200.684,-24.414,-25.879,188.477,0.000,0
1593292829.357,31.738,-24.902,-27.344,28.320,0.000,0
1593292829.361,-177.246,-23.926,-37.598,-155.762,0.000,0
1593292829.365,-188.965,-27.344,-38.086,-151.367,0.000,0
1593292829.369,-5.859,-27.344,-31.250,26.367,0.000,0
1593292829.372,192.871,-25.879,-27.344,200.195,0.000,0
1593292829.376,52.734,-26.367,-23.926,63.477,0.000,0
1593292829.380,-162.598,-25.879,-21.484,-131.348,0.000,0
1593292829.384,-189.453,-29.297,-28.320,-148.438,0.000,0
1593292829.388,-26.367,-26.855,-31.250,-1.465,0.000,0
1593292829.392,194.824,-24.902,-30.762,186.035,0.000,0
1593292829.396,90.820,-27.344,-33.203,76.172,0.000,0
1593292829.400,-146.484,-26.367,-34.180,-135.254,0.000,0
1593292829.404,-194.336,-24.902,-29.297,-165.527,0.000,0
1593292829.408,-50.293,-24.414,-24.414,-42.969,0.000,0
1593292829.411,179.199,-18.066,-28.809,155.762,0.000,0
1593292829.415,115.723,-13.672,-31.738,99.121,0.000,0
1593292829.419,-132.812,-18.555,-37.598,-120.117,0.000,0
1593292829.423,-207.520,-22.461,-36.133,-174.805,0.000,0
1593292829.427,-93.262,-24.902,-34.180,-60.059,0.000,0
1593292829.431,145.996,-24.902,-32.715,144.043,0.000,0
1593292829.435,141.113,-25.879,-28.809,113.770,0.000,0
1593292829.439,-116.699,-29.785,-28.320,-107.422,0.000,0
1593292829.443,-220.703,-29.785,-25.391,-181.152,0.000,0
1593292829.447,-113.770,-29.297,-24.414,-78.125,0.000,0
1593292829.451,128.418,-30.273,-24.902,132.812,0.000,0
1593292829.454,160.156,-33.691,-27.832,145.020,0.000,0
1593292829.458,-83.496,-32.227,-31.250,-68.359,0.000,0
1593292829.462,-208.008,-32.227,-32.227,-175.781,0.000,0
1593292829.466,-134.766,-29.785,-34.668,-109.375,0.000,0
1593292829.470,103.027,-25.879,-36.133,97.168,0.000,0
1593292829.474,191.895,-26.855,-33.691,149.414,0.000,0
1593292829.478,-37.109,-21.973,-37.109,-53.711,0.000,0
1593292829.482,-195.312,-20.020,-37.598,-177.734,0.000,0
1593292829.486,-135.742,-24.414,-33.203,-120.605,0.000,0
1593292829.490,92.285,-27.344,-33.203,76.172,0.000,0
1593292829.494,191.406,-29.297,-29.785,173.828,0.000,0
1593292829.497,-9.766,-35.156,-29.297,-13.184,0.000,0
1593292829.501,-181.152,-33.203,-30.762,-165.527,0.000,0
1593292829.505,-171.387,-32.227,-25.391,-124.512,0.000,0
1593292829.509,34.180,-35.645,-28.320,59.082,0.000,0
1593292829.513,198.730,-33.203,-34.180,189.941,0.000,0
1593292829.517,26.367,-32.227,-32.715,10.254,0.000,0
1593292829.521,-175.293,-37.598,-36.133,-171.875,0.000,0
1593292829.525,-180.664,-37.109,-36.621,-158.691,0.000,0
1593292829.529,16.113,-33.203,-34.668,14.648,0.000,0
1593292829.533,208.984,-32.715,-40.039,176.270,0.000,0
1593292829.536,54.199,-32.715,-41.016,36.133,0.000,0
1593292829.540,-167.969,-34.180,-34.668,-156.738,0.000,0
1593292829.544,-190.430,-35.645,-31.250,-167.969,0.000,0
1593292829.548,-26.855,-40.527,-34.668,-16.113,0.000,0
1593292829.552,190.430,-41.016,-38.574,166.504,0.000,0
1593292829.556,79.102,-37.109,-35.156,53.711,0.000,0
1593292829.560,-155.762,-33.691,-34.668,-150.391,0.000,0
1593292829.564,-195.801,-29.785,-38.574,-169.922,0.000,0
1593292829.568,-46.387,-30.762,-38.574,-39.062,0.000,0
1593292829.572,180.176,-33.203,-34.180,150.391,0.000,0
1593292829.576,96.680,-36.621,-36.133,73.242,0.000,0
1593292829.579,-145.508,-36.621,-37.598,-143.066,0.000,0
1593292829.583,-200.195,-33.691,-41.504,-180.664,0.000,0
1593292829.587,-69.336,-29.785,-46.875,-55.176,0.000,0
1593292829.591,168.457,-26.855,-41.504,151.367,0.000,0
1593292829.595,144.043,-27.832,-38.086,114.258,0.000,0
1593292829.599,-103.027,-28.809,-37.109,-106.445,0.000,0
1593292829.603,-192.383,-27.344,-32.715,-178.711,0.000,0
1593292829.607,-84.961,-25.879,-36.621,-66.895,0.000,0
1593292829.611,153.809,-23.926,-38.574,140.625,0.000,0
1593292829.615,170.898,-25.879,-39.062,134.766,0.000,0
1593292829.619,-72.266,-24.902,-40.039,-80.566,0.000,0
1593292829.622,-193.848,-24.414,-35.645,-180.664,0.000,0
1593292829.626,-126.465,-27.344,-36.133,-98.633,0.000,0
1593292829.630,101.074,-29.785,-42.969,110.840,0.000,0
1593292829.634,165.527,-32.227,-43.457,151.855,0.000,0
1593292829.638,-61.523,-33.691,-41.016,-52.734,0.000,0
1593292829.642,-195.801,-31.738,-35.645,-169.922,0.000,0
1593292829.646,-146.484,-32.227,-30.762,-107.910,0.000,0
1593292829.650,87.891,-29.297,-36.133,96.191,0.000,0
1593292829.654,197.754,-25.879,-36.133,181.641,0.000,0
1593292829.658,-35.645,-29.785,-35.645,-20.508,0.000,0
1593292829.661,-196.289,-29.785,-36.621,-166.016,0.000,0
1593292829.665,-160.156,-26.367,-34.668,-127.930,0.000,0
1593292829.669,49.805,-29.297,-37.109,64.941,0.000,0
1593292829.673,194.824,-30.762,-35.156,181.641,0.000,0
1593292829.677,3.418,-31.250,-34.180,0.488,0.000,0
1593292829.681,-182.129,-30.762,-31.250,-157.715,0.000,0
1593292829.685,-169.922,-28.809,-27.832,-133.789,0.000,0
1593292829.689,31.738,-26.855,-26.855,47.852,0.000,0
1593292829.693,216.309,-27.344,-23.438,198.242,0.000,0
1593292829.697,47.363,-30.273,-28.320,41.016,0.000,0
1593292829.701,-161.133,-28.809,-34.668,-147.461,0.000,0
1593292829.704,-171.875,-31.738,-36.621,-148.926,0.000,0
1593292829.708,-7.324,-36.133,-39.551,5.859,0.000,0
1593292829.712,187.012,-32.715,-40.527,177.734,0.000,0
1593292829.716,52.734,-32.227,-39.062,55.176,0.000,0
1593292829.720,-175.293,-28.320,-34.668,-142.578,0.000,0
1593292829.724,-201.172,-26.367,-34.668,-158.691,0.000,0
1593292829.728,-47.363,-25.879,-37.109,-18.066,0.000,0
1593292829.732,167.969,-24.902,-32.227,166.992,0.000,0
1593292829.736,79.102,-29.785,-28.320,77.637,0.000,0
1593292829.740,-158.203,-31.738,-28.320,-125.977,0.000,0
1593292829.744,-212.402,-31.738,-28.809,-160.645,0.000,0
1593292829.747,-74.707,-29.297,-31.250,-34.668,0.000,0
1593292829.751,164.062,-26.367,-30.762,170.898,0.000,0
1593292829.755,125.488,-23.438,-27.832,120.605,0.000,0
1593292829.759,-116.211,-25.391,-30.762,-104.004,0.000,0
1593292829.763,-196.289,-23.926,-31.250,-169.922,0.000,0
1593292829.767,-85.449,-23.926,-32.227,-62.988,0.000,0
1593292829.771,152.832,-25.391,-35.156,144.043,0.000,0
1593292829.775,148.926,-28.809,-44.922,131.836,0.000,0
1593292829.779,-99.121,-32.227,-51.270,-82.031,0.000,0
1593292829.783,-197.266,-29.297,-40.527,-167.969,0.000,0
1593292829.786,-107.422,-30.762,-37.109,-94.238,0.000,0
1593292829.790,122.070,-31.250,-39.062,111.328,0.000,0
1593292829.794,169.434,-27.344,-39.551,142.578,0.000,0
1593292829.798,-65.918,-28.809,-41.504,-68.359,0.000,0
1593292829.802,-197.266,-31.250,-41.016,-175.293,0.000,0
1593292829.806,-137.207,-29.785,-40.527,-111.816,0.000,0
1593292829.810,83.008,-31.738,-43.457,88.867,0.000,0
1593292829.814,162.109,-33.203,-45.410,144.531,0.000,0
1593292829.818,-57.617,-32.715,-44.434,-57.129,0.000,0
1593292829.822,-201.172,-32.227,-39.062,-177.734,0.000,0
1593292829.826,-162.598,-34.180,-32.227,-132.812,0.000,0
1593292829.829,52.246,-31.250,-35.156,59.082,0.000,0
1593292829.833,181.152,-25.391,-35.645,170.410,0.000,0
1593292829.837,-18.555,-28.809,-30.762,-4.395,0.000,0
1593292829.841,-193.359,-29.785,-30.273,-162.109,0.000,0
1593292829.845,-178.223,-28.809,-33.203,-135.742,0.000,0
1593292829.849,15.137,-34.668,-38.574,39.062,0.000,0
1593292829.853,195.312,-33.691,-35.645,169.434,0.000,0
1593292829.857,18.066,-34.668,-34.180,0.977,0.000,0
1593292829.861,-187.500,-37.109,-37.598,-174.316,0.000,0
1593292829.865,-186.523,-32.715,-35.645,-163.574,0.000,0
1593292829.869,-11.230,-30.762,-30.762,-0.977,0.000,0
1593292829.872,195.801,-28.320,-29.785,165.527,0.000,0
1593292829.876,64.941,-28.809,-35.645,30.273,0.000,0
1593292829.880,-164.551,-31.738,-38.574,-170.898,0.000,0
1593292829.884,-183.594,-27.832,-37.598,-178.223,0.000,0
1593292829.888,-16.602,-26.855,-40.527,-24.414,0.000,0
1593292829.892,184.082,-31.250,-41.016,154.785,0.000,0
1593292829.896,74.219,-33.203,-38.574,49.805,0.000,0
1593292829.900,-166.992,-32.227,-38.086,-154.297,0.000,0
1593292829.904,-210.938,-33.691,-39.551,-186.035,0.000,0
1593292829.908,-58.105,-37.109,-42.969,-48.340,0.000,0
1593292829.911,183.105,-34.180,-40.527,150.879,0.000,0
1593292829.915,108.887,-30.273,-40.039,79.102,0.000,0
1593292829.919,-135.742,-26.855,-40.527,-135.254,0.000,0
1593292829.923,-191.895,-24.414,-35.645,-186.523,0.000,0
1593292829.927,-78.125,-30.273,-40.527,-74.219,0.000,0
1593292829.931,150.879,-30.273,-46.875,126.953,0.000,0
1593292829.935,143.066,-25.879,-34.180,107.910,0.000,0
1593292829.939,-99.609,-26.855,-30.762,-102.539,0.000,0
1593292829.943,-194.336,-25.391,-37.109,-171.875,0.000,0
1593292829.947,-99.609,-26.367,-30.762,-78.613,0.000,0
1593292829.951,125.488,-31.250,-28.320,115.723,0.000,0
1593292829.954,154.785,-27.344,-30.762,128.418,0.000,0
1593292829.958,-77.637,-23.438,-32.715,-82.031,0.000,0
1593292829.962,-203.125,-27.832,-32.227,-186.523,0.000,0
1593292829.966,-143.066,-24.902,-32.227,-111.328,0.000,0
1593292829.970,91.309,-26.855,-38.574,94.727,0.000,0
1593292829.974,175.781,-31.738,-38.574,155.762,0.000,0
1593292829.978,-42.969,-33.203,-37.598,-46.875,0.000,0
1593292829.982,-185.059,-31.738,-36.133,-170.410,0.000,0
1593292829.986,-139.648,-30.762,-27.832,-111.328,0.000,0
1593292829.990,89.355,-30.273,-28.320,85.938,0.000,0
1593292829.994,213.379,-28.320,-28.809,178.223,0.000,0
1593292829.997,-2.441,-29.785,-31.250,-19.531,0.000,0
1593292830.001,-175.293,-30.273,-37.109,-163.574,0.000,0
1593292830.005,-148.438,-29.297,-43.457,-127.930,0.000,0
1593292830.009,52.734,-26.367,-43.457,54.199,0.000,0
1593292830.013,206.055,-25.879,-37.109,187.500,0.000,0
1593292830.017,19.043,-28.320,-33.203,14.160,0.000,0
1593292830.021,-177.734,-30.273,-27.344,-154.297,0.000,0
1593292830.025,-181.152,-32.715,-30.273,-130.371,0.000,0
1593292830.029,12.695,-33.203,-35.645,38.086,0.000,0
1593292830.033,203.125,-33.203,-30.273,190.430,0.000,0
1593292830.036,43.945,-30.762,-25.391,46.387,0.000,0
1593292830.040,-173.828,-31.738,-26.367,-141.113,0.000,0
1593292830.044,-184.082,-35.156,-27.344,-148.438,0.000,0
1593292830.048,-17.578,-36.133,-24.902,4.883,0.000,0
1593292830.052,179.688,-35.156,-25.879,182.617,0.000,0
1593292830.056,61.035,-39.062,-32.227,55.664,0.000,0
1593292830.060,-177.734,-37.598,-35.156,-146.484,0.000,0
1593292830.064,-219.727,-31.738,-33.691,-167.969,0.000,0
1593292830.068,-59.082,-32.227,-31.738,-33.691,0.000,0
1593292830.072,179.688,-30.273,-27.344,164.551,0.000,0
1593292830.076,100.098,-32.227,-28.809,84.473,0.000,0
1593292830.079,-143.066,-32.715,-35.645,-132.324,0.000,0
1593292830.083,-200.684,-27.832,-38.086,-176.758,0.000,0
1593292830.087,-73.242,-25.879,-38.574,-66.406,0.000,0
1593292830.091,167.480,-26.855,-39.062,130.859,0.000,0
1593292830.095,137.207,-24.414,-38.574,94.727,0.000,0
1593292830.099,-109.375,-20.996,-34.668,-112.793,0.000,0
1593292830.103,-195.312,-23.438,-34.180,-185.059,0.000,0
1593292830.107,-91.797,-28.809,-37.598,-89.844,0.000,0
1593292830.111,145.996,-30.273,-39.551,125.000,0.000,0
1593292830.115,160.156,-25.391,-41.504,129.883,0.000,0
1593292830.119,-75.195,-25.879,-36.133,-83.496,0.000,0
1593292830.122,-174.805,-25.879,-34.668,-176.270,0.000,0
1593292830.126,-103.516,-24.902,-34.180,-95.215,0.000,0
1593292830.130,122.559,-23.926,-32.227,115.723,0.000,1
1593292830.134,192.871,-20.508,-34.180,155.762,0.000,0
1593292830.138,-51.758,-27.344,-37.109,-62.012,0.000,0
1593292830.142,-174.805,-29.297,-38.574,-155.762,0.000,0
1593292830.146,-107.910,-28.320,-39.062,-81.055,0.000,0
1593292830.150,92.285,-33.203,-41.504,84.961,0.000,0
1593292830.154,196.289,-35.645,-42.969,162.109,0.000,0
1593292830.158,-20.508,-32.715,-36.621,-23.438,0.000,0
1593292830.161,-185.059,-29.785,-35.156,-158.691,0.000,0
1593292830.165,-157.227,-29.785,-41.504,-120.605,0.000,0
1593292830.169,57.129,-29.785,-41.016,71.777,0.000,0
1593292830.173,201.660,-29.297,-36.133,186.523,0.000,0
1593292830.177,-0.488,-31.738,-35.645,-4.395,0.000,0
1593292830.181,-185.059,-30.762,-38.574,-164.062,0.000,0
1593292830.185,-166.992,-28.809,-38.574,-139.160,0.000,0
1593292830.189,26.855,-30.762,-38.086,37.109,0.000,0
1593292830.193,196.777,-30.273,-36.621,187.012,0.000,0
1593292830.197,31.250,-30.762,-33.691,29.785,0.000,0
1593292830.201,-177.734,-34.668,-38.086,-158.691,0.000,0
1593292830.204,-183.594,-32.227,-40.527,-146.484,0.000,0
1593292830.208,-5.371,-30.273,-41.016,20.020,0.000,0
1593292830.212,198.242,-35.156,-42.480,172.852,0.000,0
1593292830.216,75.684,-29.785,-37.598,49.805,0.000,0
1593292830.220,-146.973,-24.902,-33.691,-143.555,0.000,0
1593292830.224,-187.012,-25.391,-39.062,-154.297,0.000,0
1593292830.228,-21.973,-23.926,-41.504,-4.883,0.000,0
1593292830.232,206.055,-24.902,-38.086,177.734,0.000,0
1593292830.236,108.887,-30.273,-39.062,80.078,0.000,0
1593292830.240,-130.371,-29.785,-40.039,-132.812,0.000,0
1593292830.244,-185.547,-25.391,-37.598,-159.668,0.000,0
1593292830.247,-49.316,-25.391,-38.086,-25.391,0.000,0
1593292830.251,178.711,-25.391,-39.062,162.598,0.000,0
1593292830.255,129.395,-22.949,-38.574,103.516,0.000,0
1593292830.259,-117.676,-21.973,-41.992,-119.141,0.000,0
1593292830.263,-198.242,-22.949,-42.480,-184.570,0.000,0
1593292830.267,-85.938,-21.484,-44.434,-79.590,0.000,0
1593292830.271,147.461,-19.531,-45.898,123.535,0.000,0
1593292830.275,143.066,-18.555,-43.457,114.746,0.000,0
1593292830.279,-105.469,-20.996,-43.457,-101.074,0.000,0
1593292830.283,-209.961,-20.508,-41.992,-187.988,0.000,0
1593292830.286,-108.398,-17.578,-40.039,-99.609,0.000,0
1593292830.290,130.859,-19.531,-41.504,99.121,0.000,0
1593292830.294,175.293,-23.926,-44.434,121.094,0.000,0
1593292830.298,-50.293,-23.438,-44.922,-82.520,0.000,0
1593292830.302,-182.617,-19.043,-38.086,-190.918,0.000,0
1593292830.306,-125.000,-20.996,-35.156,-118.164,0.000,0
1593292830.310,104.492,-23.926,-37.109,93.262,0.000,0
1593292830.314,191.895,-26.367,-40.527,160.645,0.000,0
1593292830.318,-30.762,-28.320,-40.527,-45.898,0.000,0
1593292830.322,-191.406,-31.738,-35.156,-179.688,0.000,0
1593292830.326,-158.203,-30.273,-38.574,-127.441,0.000,0
1593292830.329,60.059,-22.461,-36.621,63.477,0.000,0
1593292830.333,195.312,-24.414,-29.297,169.922,0.000,0
1593292830.337,-4.395,-28.809,-31.738,-13.672,0.000,0
1593292830.341,-189.453,-30.762,-35.645,-177.246,0.000,0
1593292830.345,-178.223,-31.738,-37.109,-153.320,0.000,0
1593292830.349,29.785,-27.344,-36.133,33.691,0.000,0
1593292830.353,199.707,-23.926,-33.203,172.852,0.000,0
1593292830.357,16.602,-26.367,-31.738,7.324,0.000,0
1593292830.361,-192.383,-27.832,-31.738,-166.504,0.000,0
1593292830.365,-191.895,-30.762,-31.250,-154.297,0.000,0
1593292830.369,-1.953,-30.273,-31.738,15.625,0.000,0
1593292830.372,192.871,-30.762,-32.715,182.617,0.000,0
1593292830.376,54.688,-33.203,-32.715,46.875,0.000,0
1593292830.380,-166.992,-36.621,-38.574,-144.531,0.000,0
1593292830.384,-193.848,-37.598,-37.598,-166.504,0.000,0
1593292830.388,-27.344,-36.621,-32.715,-20.996,0.000,0
1593292830.392,189.941,-32.227,-34.180,168.457,0.000,0
1593292830.396,82.031,-27.344,-33.203,65.430,0.000,0
1593292830.400,-161.621,-21.973,-33.691,-139.160,0.000,0
1593292830.404,-209.961,-20.996,-36.133,-171.387,0.000,0
1593292830.408,-61.523,-23.438,-37.598,-40.039,0.000,0
1593292830.411,176.758,-19.531,-38.086,165.039,0.000,0
1593292830.415,112.793,-18.066,-39.551,96.680,0.000,0
1593292830.419,-133.789,-22.461,-42.480,-128.906,0.000,0
1593292830.423,-200.195,-23.926,-36.621,-181.152,0.000,0
1593292830.427,-79.590,-23.926,-35.645,-65.918,0.000,0
1593292830.431,154.297,-23.438,-39.551,141.113,0.000,0
1593292830.435,134.277,-26.855,-34.180,114.258,0.000,0
1593292830.439,-115.723,-26.367,-38.086,-111.816,0.000,0
1593292830.443,-203.125,-23.926,-43.457,-175.781,0.000,0
1593292830.447,-107.910,-24.414,-33.691,-71.777,0.000,0
1593292830.451,125.000,-26.855,-28.809,126.465,0.000,0
1593292830.454,153.809,-29.785,-28.320,136.230,0.000,0
1593292830.458,-82.520,-27.832,-30.762,-75.684,0.000,0
1593292830.462,-204.102,-28.809,-34.180,-175.293,0.000,0
1593292830.466,-133.789,-30.273,-33.691,-104.980,0.000,0
1593292830.470,101.074,-27.344,-27.832,107.422,0.000,0
1593292830.474,174.316,-29.785,-28.320,161.621,0.000,0
1593292830.478,-50.781,-33.691,-31.738,-41.016,0.000,0
1593292830.482,-194.336,-33.203,-31.250,-164.551,0.000,0
1593292830.486,-142.090,-29.785,-26.855,-115.234,0.000,0
1593292830.490,80.566,-28.809,-29.785,83.008,0.000,0
1593292830.494,199.219,-29.297,-34.180,175.293,0.000,0
1593292830.497,-4.883,-28.320,-31.738,-16.602,0.000,0
1593292830.501,-171.387,-29.785,-28.809,-164.551,0.000,0
1593292830.505,-147.949,-27.832,-27.832,-128.418,0.000,0
1593292830.509,52.734,-25.391,-30.273,58.105,0.000,0
1593292830.513,209.473,-27.344,-28.320,184.570,0.000,0
1593292830.517,26.855,-27.344,-30.762,14.648,0.000,0
1593292830.521,-165.039,-27.832,-36.133,-147.949,0.000,0
1593292830.525,-159.180,-26.855,-36.621,-135.742,0.000,0
1593292830.529,37.109,-24.414,-37.598,32.227,0.000,0
1593292830.533,218.262,-23.438,-37.109,185.059,0.000,0
1593292830.536,64.453,-29.785,-37.109,39.551,0.000,0
1593292830.540,-149.902,-29.297,-40.527,-149.902,0.000,0
1593292830.544,-179.688,-25.879,-39.551,-156.738,0.000,0
1593292830.548,-1.465,-26.855,-31.738,-2.930,0.000,0
1593292830.552,196.289,-29.297,-30.273,170.898,0.000,0
1593292830.556,76.172,-27.344,-31.738,63.477,0.000,0
1593292830.560,-145.020,-25.391,-31.738,-143.555,0.000,0
1593292830.564,-188.477,-30.273,-36.621,-158.691,0.000,0
1593292830.568,-38.574,-34.668,-42.969,-21.484,0.000,0
1593292830.572,185.059,-33.691,-44.434,156.738,0.000,0
1593292830.576,104.980,-35.645,-41.016,86.914,0.000,0
1593292830.579,-129.883,-40.039,-41.992,-124.023,0.000,0
1593292830.583,-184.570,-36.621,-41.504,-165.039,0.000,0
1593292830.587,-59.570,-32.227,-39.062,-46.387,0.000,0
1593292830.591,176.758,-31.250,-41.992,149.902,0.000,0
1593292830.595,147.949,-30.762,-40.039,111.816,0.000,0
1593292830.599,-101.074,-28.320,-37.109,-101.074,0.000,0
1593292830.603,-190.918,-22.461,-37.109,-164.062,0.000,0
1593292830.607,-76.660,-21.973,-37.109,-50.293,0.000,0
1593292830.611,140.625,-25.879,-36.133,125.977,0.000,0
1593292830.615,129.395,-26.367,-32.227,95.703,0.000,0
1593292830.619,-91.309,-29.297,-32.227,-92.285,0.000,0
1593292830.622,-198.242,-28.809,-32.715,-172.852,0.000,0
1593292830.626,-113.770,-27.832,-30.762,-95.703,0.000,0
1593292830.630,123.047,-27.344,-33.203,112.305,0.000,0
1593292830.634,177.734,-24.414,-35.156,153.320,0.000,0
1593292830.638,-55.176,-25.391,-33.203,-58.105,0.000,0
1593292830.642,-186.035,-25.879,-32.715,-166.504,0.000,0
1593292830.646,-123.535,-29.297,-31.250,-104.004,0.000,0
1593292830.650,90.332,-31.250,-31.738,95.215,0.000,0
1593292830.654,190.430,-30.273,-32.715,175.781,0.000,0
1593292830.658,-21.484,-28.809,-31.250,-24.414,0.000,0
1593292830.661,-183.594,-28.809,-28.809,-166.992,0.000,0
1593292830.665,-152.344,-33.203,-29.785,-124.023,0.000,0
1593292830.669,60.547,-32.227,-30.273,67.383,0.000,0
1593292830.673,203.125,-27.344,-25.879,178.711,0.000,0
1593292830.677,4.883,-27.344,-25.879,2.441,0.000,0
1593292830.681,-175.781,-22.949,-29.785,-150.391,0.000,0
1593292830.685,-166.016,-23.438,-31.738,-135.742,0.000,0
1593292830.689,35.156,-28.320,-34.180,35.156,0.000,0
1593292830.693,218.262,-25.391,-36.621,186.523,0.000,0
1593292830.697,46.875,-23.926,-32.715,37.109,0.000,0
1593292830.701,-178.711,-22.461,-30.273,-145.020,0.000,0
1593292830.704,-180.664,-23.926,-31.738,-144.043,0.000,0
1593292830.708,3.906,-27.344,-31.250,27.344,0.000,0
1593292830.712,192.383,-26.367,-31.738,187.988,0.000,0
1593292830.716,63.477,-27.832,-33.691,56.152,0.000,0
1593292830.720,-174.805,-34.668,-35.156,-154.785,0.000,0
1593292830.724,-204.102,-32.227,-33.691,-180.176,0.000,0
1593292830.728,-33.203,-25.879,-29.297,-19.531,0.000,0
1593292830.732,186.523,-28.320,-26.855,171.875,0.000,0
1593292830.736,85.938,-27.344,-25.391,67.871,0.000,0
1593292830.740,-156.738,-29.297,-29.297,-142.578,0.000,0
1593292830.744,-197.754,-29.785,-31.738,-174.316,0.000,0
1593292830.747,-55.176,-24.414,-31.250,-39.062,0.000,0
1593292830.751,174.805,-24.902,-27.832,159.668,0.000,0
1593292830.755,118.164,-28.809,-30.762,97.656,0.000,0
1593292830.759,-125.488,-28.320,-32.227,-114.258,0.000,0
1593292830.763,-200.684,-28.320,-29.785,-174.805,0.000,0
1593292830.767,-93.262,-27.832,-32.715,-70.312,0.000,0
1593292830.771,145.996,-31.250,-37.109,128.906,0.000,0
1593292830.775,140.137,-32.715,-36.621,112.305,0.000,0
1593292830.779,-101.074,-30.273,-34.180,-105.957,0.000,0
1593292830.783,-198.730,-31.738,-38.086,-189.453,0.000,0
1593292830.786,-118.164,-30.762,-40.039,-96.191,0.000,0
1593292830.790,114.746,-29.785,-40.039,110.352,0.000,0
1593292830.794,170.410,-28.320,-40.039,135.742,0.000,0
1593292830.798,-70.801,-27.832,-38.574,-73.730,0.000,0
1593292830.802,-209.473,-30.762,-40.527,-181.641,0.000,0
1593292830.806,-145.508,-30.273,-41.992,-126.465,0.000,0
1593292830.810,92.285,-30.273,-41.504,71.289,0.000,0
1593292830.814,182.617,-30.273,-41.016,140.137,0.000,0
1593292830.818,-51.758,-30.762,-36.133,-56.641,0.000,0
1593292830.822,-200.684,-29.785,-29.297,-185.059,0.000,0
1593292830.826,-152.344,-30.273,-31.738,-126.465,0.000,0
1593292830.829,67.871,-30.273,-37.109,73.242,0.000,0
1593292830.833,190.918,-29.297,-34.668,166.016,0.000,0
1593292830.837,-16.113,-33.203,-33.203,-24.414,0.000,0
1593292830.841,-198.730,-31.738,-28.320,-180.664,0.000,0
1593292830.845,-162.598,-25.879,-26.367,-121.094,0.000,0
1593292830.849,59.570,-25.391,-30.762,75.195,0.000,0
1593292830.853,205.078,-29.785,-33.691,174.316,0.000,0
1593292830.857,19.531,-32.227,-35.156,19.531,0.000,0
1593292830.861,-183.105,-32.715,-37.598,-158.203,0.000,0
1593292830.865,-168.945,-34.180,-33.203,-153.320,0.000,0
1593292830.869,19.043,-33.203,-34.668,26.855,0.000,0
1593292830.872,197.754,-31.250,-39.551,180.664,0.000,0
1593292830.876,49.316,-27.344,-32.227,32.715,0.000,0
1593292830.880,-167.969,-26.367,-27.832,-147.949,0.000,0
1593292830.884,-187.012,-27.832,-27.832,-157.227,0.000,0
1593292830.888,-16.602,-29.297,-29.297,-7.812,0.000,0
1593292830.892,182.617,-31.738,-33.691,165.039,0.000,0
1593292830.896,62.012,-31.738,-37.598,50.781,0.000,0
1593292830.900,-157.227,-24.902,-33.691,-140.137,0.000,0
1593292830.904,-201.660,-21.484,-30.762,-165.039,0.000,0
1593292830.908,-49.805,-27.832,-30.273,-26.855,0.000,0
1593292830.911,175.781,-30.762,-28.809,165.527,0.000,0
1593292830.915,103.516,-30.273,-22.949,88.867,0.000,0
1593292830.919,-132.812,-28.320,-22.949,-119.629,0.000,0
1593292830.923,-190.918,-27.832,-29.785,-178.711,0.000,0
1593292830.927,-65.918,-30.762,-35.156,-67.871,0.000,0
1593292830.931,165.039,-27.832,-37.109,149.902,0.000,0
1593292830.935,132.324,-22.949,-33.691,112.305,0.000,0
1593292830.939,-115.723,-20.508,-28.809,-118.652,0.000,0
1593292830.943,-200.195,-21.484,-24.902,-179.199,0.000,0
1593292830.947,-105.957,-24.902,-24.414,-72.754,0.000,0
1593292830.951,135.742,-24.902,-26.855,128.906,0.000,1
1593292830.954,161.621,-26.367,-30.273,131.836,0.000,0
1593292830.958,-90.820,-31.738,-35.645,-83.984,0.000,0
1593292830.962,-207.520,-29.785,-35.645,-180.664,0.000,0
1593292830.966,-131.348,-30.273,-36.133,-96.680,0.000,0
1593292830.970,104.980,-30.762,-36.621,111.816,0.000,0
1593292830.974,172.852,-24.902,-29.785,161.133,0.000,0
1593292830.978,-60.547,-26.367,-26.855,-46.875,0.000,0
1593292830.982,-203.613,-27.832,-32.715,-174.316,0.000,0
1593292830.986,-162.109,-28.320,-37.109,-119.629,0.000,0
1593292830.990,62.012,-28.320,-34.668,72.266,0.000,0
1593292830.994,177.734,-25.391,-31.738,156.738,0.000,0
1593292830.997,-30.273,-24.902,-32.227,-22.461,0.000,0
1593292831.001,-194.824,-27.832,-34.668,-166.016,0.000,0
1593292831.005,-160.156,-25.879,-31.250,-135.742,0.000,0
1593292831.009,58.594,-24.902,-27.344,64.941,0.000,0
1593292831.013,208.008,-30.273,-28.320,189.453,0.000,0
1593292831.017,17.090,-29.785,-28.320,14.160,0.000,0
1593292831.021,-172.363,-31.250,-28.320,-146.484,0.000,0
1593292831.025,-165.039,-27.832,-29.785,-135.254,0.000,0
1593292831.029,35.645,-26.367,-34.668,42.480,0.000,0
1593292831.033,216.797,-29.297,-33.203,197.754,0.000,0
1593292831.036,54.688,-25.879,-26.855,46.875,0.000,0
1593292831.040,-155.762,-25.391,-31.250,-136.230,0.000,0
1593292831.044,-175.781,-30.762,-33.691,-145.996,0.000,0
1593292831.048,-7.324,-31.738,-34.180,5.859,0.000,0
1593292831.052,200.684,-28.809,-36.133,184.082,0.000,0
1593292831.056,82.031,-33.203,-36.133,67.871,0.000,0
1593292831.060,-147.949,-32.715,-31.738,-136.230,0.000,0
1593292831.064,-191.895,-30.273,-28.809,-161.621,0.000,0
1593292831.068,-43.945,-32.227,-33.691,-21.484,0.000,0
1593292831.072,182.129,-35.645,-35.645,173.828,0.000,0
1593292831.076,103.027,-34.180,-34.668,86.426,0.000,0
1593292831.079,-132.812,-28.809,-29.785,-122.559,0.000,0
1593292831.083,-185.547,-32.227,-27.344,-153.320,0.000,0
1593292831.087,-57.129,-34.668,-26.367,-37.598,0.000,0
1593292831.091,161.133,-34.668,-25.879,156.250,0.000,0
1593292831.095,121.582,-35.156,-27.344,114.258,0.000,0
1593292831.099,-111.328,-29.785,-26.855,-103.027,0.000,0
1593292831.103,-187.988,-28.809,-25.879,-175.781,0.000,0
1593292831.107,-85.449,-28.320,-28.809,-73.242,0.000,0
1593292831.111,145.508,-24.414,-31.738,139.160,0.000,0
1593292831.115,158.203,-24.414,-27.832,131.348,0.000,0
1593292831.119,-86.426,-24.414,-27.344,-85.938,0.000,0
1593292831.122,-190.430,-22.461,-28.320,-168.945,0.000,0
1593292831.126,-106.934,-21.484,-29.297,-81.055,0.000,0
1593292831.130,125.000,-22.461,-39.551,117.188,0.000,0
1593292831.134,167.969,-23.438,-42.969,138.672,0.000,0
1593292831.138,-68.359,-25.879,-38.086,-67.871,0.000,0
1593292831.142,-192.383,-24.414,-35.156,-185.547,0.000,0
1593292831.146,-141.113,-21.484,-38.086,-123.535,0.000,0
1593292831.150,72.754,-21.484,-32.715,78.125,0.000,0
1593292831.154,173.828,-23.438,-23.438,138.184,0.000,0
1593292831.158,-50.781,-29.297,-29.297,-71.289,0.000,0
1593292831.161,-209.473,-34.668,-33.203,-195.801,0.000,0
1593292831.165,-165.039,-35.645,-35.156,-144.531,0.000,0
1593292831.169,62.012,-32.715,-40.039,53.223,0.000,0
1593292831.173,190.430,-31.250,-40.527,158.691,0.000,0
1593292831.177,-14.648,-32.227,-43.457,-20.996,0.000,0
1593292831.181,-182.617,-34.668,-47.363,-163.086,0.000,0
1593292831.185,-172.363,-36.133,-47.852,-146.973,0.000,0
1593292831.189,24.902,-38.086,-44.922,26.855,0.000,0
1593292831.193,207.520,-37.109,-42.480,168.457,0.000,0
1593292831.197,41.504,-33.691,-41.504,15.625,0.000,0
1593292831.201,-165.527,-35.156,-37.109,-157.227,0.000,0
1593292831.204,-181.641,-38.574,-36.133,-150.391,0.000,0
1593292831.208,-3.418,-33.203,-33.691,14.648,0.000,0
1593292831.212,202.148,-28.809,-30.273,181.641,0.000,0
1593292831.216,61.523,-30.273,-34.180,51.758,0.000,0
1593292831.220,-160.156,-28.809,-35.156,-150.391,0.000,0
1593292831.224,-183.594,-27.832,-33.203,-173.340,0.000,0
1593292831.228,-22.949,-31.250,-41.016,-23.438,0.000,0
1593292831.232,200.195,-29.297,-40.527,165.527,0.000,0
1593292831.236,103.516,-30.273,-35.156,71.289,0.000,0
1593292831.240,-135.254,-32.227,-34.668,-135.742,0.000,0
1593292831.244,-177.734,-29.297,-28.320,-160.156,0.000,0
1593292831.247,-42.480,-29.297,-26.367,-22.461,0.000,0
1593292831.251,185.547,-30.273,-28.320,173.828,0.000,0
1593292831.255,123.535,-29.785,-29.785,105.469,0.000,0
1593292831.259,-131.836,-33.691,-35.156,-118.164,0.000,0
1593292831.263,-203.125,-34.668,-39.062,-177.734,0.000,0
1593292831.267,-77.148,-26.855,-37.109,-58.105,0.000,0
1593292831.271,159.180,-25.391,-38.574,142.090,0.000,0
1593292831.275,141.113,-30.762,-37.598,117.188,0.000,0
1593292831.279,-104.004,-34.668,-35.645,-100.586,0.000,0
1593292831.283,-198.242,-32.715,-33.691,-180.176,0.000,0
1593292831.286,-106.445,-32.227,-34.668,-88.867,0.000,0
1593292831.290,119.141,-33.691,-38.086,107.910,0.000,0
1593292831.294,161.133,-31.250,-39.551,122.559,0.000,0
1593292831.298,-73.730,-28.809,-39.062,-83.496,0.000,0
1593292831.302,-199.707,-27.344,-38.086,-184.082,0.000,0
1593292831.306,-121.094,-32.715,-40.527,-114.746,0.000,0
1593292831.310,113.281,-36.133,-39.062,95.703,0.000,0
1593292831.314,202.148,-30.762,-34.668,156.738,0.000,0
1593292831.318,-22.461,-26.367,-33.691,-48.828,0.000,0
1593292831.322,-179.688,-27.344,-28.809,-172.852,0.000,0
1593292831.326,-132.324,-31.250,-27.832,-118.652,0.000,0
1593292831.329,85.938,-30.273,-27.344,77.637,0.000,0
1593292831.333,195.801,-30.273,-26.367,176.270,0.000,0
1593292831.337,-8.789,-24.414,-27.832,-7.812,0.000,0
1593292831.341,-183.594,-21.973,-29.785,-158.691,0.000,0
1593292831.345,-158.203,-26.855,-33.203,-132.324,0.000,0
1593292831.349,41.992,-27.832,-27.832,54.199,0.000,0
1593292831.353,200.684,-25.879,-23.926,183.105,0.000,0
1593292831.357,27.832,-26.855,-28.809,8.301,0.000,0
1593292831.361,-170.898,-31.738,-32.227,-156.250,0.000,0
1593292831.365,-177.734,-33.691,-35.156,-148.438,0.000,0
1593292831.369,9.277,-31.738,-34.668,11.719,0.000,0
1593292831.372,208.496,-30.273,-31.250,182.129,0.000,0
1593292831.376,59.570,-29.297,-31.738,38.574,0.000,0
1593292831.380,-166.504,-33.203,-34.668,-156.250,0.000,0
1593292831.384,-195.312,-36.133,-37.109,-158.691,0.000,0
1593292831.388,-22.949,-31.250,-34.180,-11.230,0.000,0
1593292831.392,207.520,-30.273,-34.180,164.062,0.000,0
1593292831.396,79.102,-33.691,-39.551,57.129,0.000,0
1593292831.400,-161.133,-36.133,-40.039,-155.273,0.000,0
1593292831.404,-200.195,-34.668,-38.574,-184.082,0.000,0
1593292831.408,-54.199,-33.203,-41.992,-39.551,0.000,0
1593292831.411,174.316,-31.250,-39.551,159.668,0.000,0
1593292831.415,105.469,-33.203,-35.645,84.473,0.000,0
1593292831.419,-142.090,-36.133,-41.504,-125.977,0.000,0
1593292831.423,-214.355,-37.598,-40.527,-173.828,0.000,0
1593292831.427,-83.496,-38.574,-34.668,-54.199,0.000,0
1593292831.431,151.855,-36.621,-33.203,145.996,0.000,0
1593292831.435,122.070,-32.715,-33.691,101.074,0.000,0
1593292831.439,-123.535,-32.227,-34.668,-111.328,0.000,0
1593292831.443,-209.961,-32.715,-31.738,-174.805,0.000,0
1593292831.447,-114.258,-34.668,-32.715,-82.031,0.000,0
1593292831.451,123.535,-29.297,-31.738,125.000,0.000,0
1593292831.454,149.902,-23.438,-30.273,132.812,0.000,0
1593292831.458,-88.379,-24.902,-31.738,-89.844,0.000,0
1593292831.462,-200.684,-24.902,-32.227,-185.547,0.000,0
1593292831.466,-125.000,-26.855,-35.156,-97.656,0.000,0
1593292831.470,107.910,-26.855,-34.180,115.234,0.000,0
1593292831.474,170.410,-26.367,-34.668,157.227,0.000,0
1593292831.478,-67.871,-28.320,-35.645,-62.012,0.000,0
1593292831.482,-205.078,-29.297,-33.203,-170.410,0.000,0
1593292831.486,-151.367,-29.297,-33.691,-105.957,0.000,0
1593292831.490,77.148,-28.320,-34.668,89.355,0.000,0
1593292831.494,182.129,-30.273,-33.691,171.387,0.000,0
1593292831.497,-34.668,-33.203,-32.227,-35.645,0.000,0
1593292831.501,-197.266,-32.715,-31.250,-170.898,0.000,0
1593292831.505,-168.945,-34.668,-33.203,-128.418,0.000,0
1593292831.509,53.711,-32.227,-31.738,56.152,0.000,0
1593292831.513,207.031,-28.320,-29.785,177.246,0.000,0
1593292831.517,20.020,-27.344,-26.855,-3.906,0.000,0
1593292831.521,-179.199,-28.809,-29.785,-171.387,0.000,0
1593292831.525,-174.805,-31.738,-35.645,-139.648,0.000,0
1593292831.529,37.109,-33.203,-35.645,41.992,0.000,0
1593292831.533,225.098,-30.273,-33.691,175.293,0.000,0
1593292831.536,47.852,-28.320,-31.738,22.949,0.000,0
1593292831.540,-174.805,-30.762,-35.156,-152.832,0.000,0
1593292831.544,-188.477,-35.645,-37.109,-163.574,0.000,0
1593292831.548,-0.977,-33.691,-34.668,-3.418,0.000,0
1593292831.552,205.566,-34.180,-36.621,169.434,0.000,0
1593292831.556,74.219,-34.668,-36.621,48.340,0.000,0
1593292831.560,-157.715,-32.715,-33.203,-145.020,0.000,0
1593292831.564,-194.336,-33.691,-33.203,-169.922,0.000,0
1593292831.568,-32.715,-35.645,-33.691,-27.344,0.000,0
1593292831.572,180.176,-35.645,-31.738,161.621,0.000,0
1593292831.576,91.797,-31.738,-34.668,70.801,0.000,0
1593292831.579,-137.695,-32.715,-36.133,-136.230,0.000,0
1593292831.583,-190.918,-34.668,-30.762,-179.688,0.000,0
1593292831.587,-58.594,-34.668,-34.668,-58.105,0.000,0
1593292831.591,169.434,-30.762,-40.527,145.020,0.000,0
1593292831.595,113.770,-31.250,-43.457,89.355,0.000,0
1593292831.599,-124.512,-30.762,-42.480,-125.488,0.000,0
1593292831.603,-194.336,-31.250,-41.504,-179.688,0.000,0
1593292831.607,-90.332,-35.156,-44.434,-73.242,0.000,0
1593292831.611,140.625,-31.738,-41.992,131.836,0.000,0
1593292831.615,143.555,-32.227,-40.527,117.188,0.000,0
1593292831.619,-92.285,-34.668,-41.016,-99.121,0.000,0
1593292831.622,-204.590,-30.273,-40.039,-179.199,0.000,0
1593292831.626,-118.652,-29.785,-44.922,-92.285,0.000,0
1593292831.630,111.816,-30.762,-45.898,99.609,0.000,0
1593292831.634,152.344,-30.273,-44.434,127.930,0.000,0
1593292831.638,-83.496,-33.691,-47.852,-83.496,0.000,0
1593292831.642,-212.891,-34.668,-48.828,-194.824,0.000,0
1593292831.646,-149.414,-35.156,-48.828,-124.023,0.000,0
1593292831.650,74.219,-33.691,-47.852,80.566,0.000,0
1593292831.654,169.434,-30.273,-44.922,145.508,0.000,0
1593292831.658,-56.641,-33.203,-43.457,-64.941,0.000,0
1593292831.661,-217.285,-35.156,-44.434,-191.895,0.000,0
1593292831.665,-169.922,-34.668,-44.434,-133.789,0.000,0
1593292831.669,55.176,-35.645,-45.410,60.547,0.000,0
1593292831.673,195.801,-31.250,-46.387,166.992,0.000,0
1593292831.677,-4.883,-29.297,-46.387,-19.531,0.000,0
1593292831.681,-197.266,-29.785,-39.551,-172.852,0.000,0
1593292831.685,-180.176,-32.715,-36.621,-146.973,0.000,0
1593292831.689,24.414,-32.227,-40.527,32.715,0.000,0
1593292831.693,188.965,-30.273,-37.598,178.223,0.000,0
1593292831.697,13.184,-31.250,-33.203,15.137,0.000,0
1593292831.701,-190.430,-33.203,-35.156,-168.945,0.000,0
1593292831.704,-189.453,-35.156,-37.109,-165.527,0.000,0
1593292831.708,7.324,-37.598,-40.039,6.836,0.000,0
1593292831.712,202.148,-38.086,-37.598,181.641,0.000,0
1593292831.716,58.594,-36.133,-33.691,55.176,0.000,0
1593292831.720,-161.621,-33.691,-34.180,-140.625,0.000,0
1593292831.724,-197.266,-35.156,-32.227,-160.645,0.000,0
1593292831.728,-37.598,-41.016,-37.598,-9.277,0.000,0
1593292831.732,186.523,-39.062,-38.574,186.523,0.000,1
1593292831.736,81.543,-33.203,-33.203,73.730,0.000,0
1593292831.740,-153.320,-32.715,-34.180,-138.672,0.000,0
1593292831.744,-196.777,-35.645,-38.086,-164.551,0.000,0
1593292831.747,-58.594,-32.715,-39.062,-42.969,0.000,0
1593292831.751,168.945,-27.832,-36.133,152.832,0.000,0
1593292831.755,120.117,-31.250,-36.621,92.773,0.000,0
1593292831.759,-121.094,-31.738,-36.133,-116.211,0.000,0
1593292831.763,-204.102,-29.297,-35.156,-167.480,0.000,0
1593292831.767,-81.055,-29.297,-37.109,-61.523,0.000,0
1593292831.771,162.109,-28.320,-40.527,139.160,0.000,0
1593292831.775,142.090,-30.273,-44.434,108.887,0.000,0
1593292831.779,-115.234,-34.668,-46.387,-110.352,0.000,0
1593292831.783,-208.008,-34.668,-45.898,-187.012,0.000,0
1593292831.786,-107.910,-33.203,-39.551,-94.727,0.000,0
1593292831.790,127.930,-35.156,-41.504,115.234,0.000,0
1593292831.794,157.715,-34.180,-46.387,133.301,0.000,0
1593292831.798,-82.520,-33.691,-43.457,-83.984,0.000,0
1593292831.802,-208.008,-35.156,-41.504,-189.453,0.000,0
1593292831.806,-137.207,-32.715,-39.062,-113.770,0.000,0
1593292831.810,100.098,-34.668,-41.016,90.820,0.000,0
1593292831.814,173.340,-37.109,-43.457,139.160,0.000,0
1593292831.818,-43.457,-31.738,-41.016,-58.105,0.000,0
1593292831.822,-192.383,-28.320,-41.016,-168.945,0.000,0
1593292831.826,-142.578,-28.809,-40.039,-117.188,0.000,0
1593292831.829,85.449,-27.832,-37.109,77.637,0.000,0
1593292831.833,196.777,-31.250,-36.621,170.898,0.000,0
1593292831.837,-15.625,-31.250,-41.992,-21.973,0.000,0
1593292831.841,-184.570,-24.902,-36.621,-164.551,0.000,0
1593292831.845,-154.297,-23.926,-27.832,-132.812,0.000,0
1593292831.849,47.852,-21.973,-31.250,45.898,0.000,0
1593292831.853,207.520,-18.555,-36.133,176.758,0.000,0
1593292831.857,15.625,-20.508,-34.180,3.418,0.000,0
1593292831.861,-185.059,-23.438,-32.227,-164.551,0.000,0
1593292831.865,-177.246,-24.414,-37.109,-151.367,0.000,0
1593292831.869,11.230,-26.367,-41.504,16.113,0.000,0
1593292831.872,192.871,-29.297,-40.039,172.363,0.000,0
1593292831.876,37.598,-32.715,-38.574,28.809,0.000,0
1593292831.880,-184.570,-34.668,-38.086,-159.668,0.000,0
1593292831.884,-209.961,-36.133,-38.086,-168.457,0.000,0
1593292831.888,-31.738,-34.180,-41.504,-12.695,0.000,0
1593292831.892,189.941,-27.344,-37.598,167.969,0.000,0
1593292831.896,72.266,-29.297,-36.133,60.059,0.000,0
1593292831.900,-160.645,-34.668,-38.574,-147.949,0.000,0
1593292831.904,-189.453,-31.738,-33.203,-174.805,0.000,0
1593292831.908,-42.480,-33.203,-35.156,-21.973,0.000,0
1593292831.911,180.176,-35.156,-43.945,171.387,0.000,0
1593292831.915,111.816,-32.227,-38.574,84.961,0.000,0
1593292831.919,-138.184,-31.738,-36.621,-132.812,0.000,0
1593292831.923,-213.379,-31.250,-41.992,-179.199,0.000,0
1593292831.927,-78.125,-32.715,-41.992,-51.270,0.000,0
1593292831.931,162.109,-30.762,-41.992,148.438,0.000,0
1593292831.935,128.906,-26.367,-37.109,105.469,0.000,0
1593292831.939,-121.582,-24.414,-31.250,-111.328,0.000,0
1593292831.943,-207.520,-24.902,-32.227,-179.199,0.000,0
1593292831.947,-100.098,-24.414,-36.133,-76.660,0.000,0
1593292831.951,127.441,-26.367,-36.621,125.000,0.000,0
1593292831.954,136.230,-28.809,-35.156,121.094,0.000,0
1593292831.958,-102.539,-28.809,-32.715,-102.051,0.000,0
1593292831.962,-212.402,-29.785,-30.762,-188.477,0.000,0
1593292831.966,-127.930,-27.344,-30.762,-94.238,0.000,0
1593292831.970,105.469,-27.832,-31.738,110.840,0.000,0
1593292831.974,175.781,-30.273,-31.738,148.438,0.000,0
1593292831.978,-59.082,-35.156,-33.691,-65.430,0.000,0
1593292831.982,-207.031,-38.574,-32.715,-185.059,0.000,0
1593292831.986,-147.461,-34.668,-31.250,-128.906,0.000,0
1593292831.990,80.566,-32.227,-31.738,71.289,0.000,0
1593292831.994,193.848,-31.250,-28.809,172.852,0.000,0
1593292831.997,-26.367,-31.250,-31.738,-20.996,0.000,0
1593292832.001,-189.453,-32.715,-33.691,-159.180,0.000,0
1593292832.005,-146.973,-30.762,-35.156,-116.211,0.000,0
1593292832.009,59.570,-29.297,-41.016,60.547,0.000,0
1593292832.013,198.730,-31.250,-39.062,174.316,0.000,0
1593292832.017,2.930,-32.715,-29.785,-10.742,0.000,0
1593292832.021,-189.453,-33.691,-28.809,-165.527,0.000,0
1593292832.025,-176.270,-31.250,-35.645,-133.301,0.000,0
1593292832.029,29.297,-30.273,-37.598,39.062,0.000,0
1593292832.033,208.984,-32.715,-34.180,184.082,0.000,0
1593292832.036,41.992,-31.738,-29.297,25.391,0.000,0
1593292832.040,-164.062,-36.133,-31.250,-159.668,0.000,0
1593292832.044,-180.664,-39.551,-33.691,-155.762,0.000,0
1593292832.048,-0.488,-33.691,-30.762,11.230,0.000,0
1593292832.052,204.590,-38.574,-33.203,176.758,0.000,0
1593292832.056,64.941,-45.410,-34.668,44.922,0.000,0
1593292832.060,-164.551,-43.457,-36.133,-153.320,0.000,0
1593292832.064,-204.590,-41.992,-38.574,-178.711,0.000,0
1593292832.068,-47.363,-41.016,-34.180,-30.762,0.000,0
1593292832.072,184.082,-41.016,-34.180,158.691,0.000,0
1593292832.076,88.867,-42.969,-33.203,65.430,0.000,0
1593292832.079,-152.344,-41.016,-29.785,-144.043,0.000,0
1593292832.083,-207.031,-37.598,-28.809,-180.664,0.000,0
1593292832.087,-68.848,-38.574,-25.391,-42.480,0.000,0
1593292832.091,181.641,-41.016,-24.902,166.504,0.000,0
1593292832.095,137.207,-41.992,-26.855,111.328,0.000,0
1593292832.099,-113.770,-42.480,-29.297,-111.816,0.000,0
1593292832.103,-190.430,-43.457,-29.297,-159.180,0.000,0
1593292832.107,-76.660,-43.457,-26.855,-53.711,0.000,0
1593292832.111,164.551,-46.875,-28.809,145.508,0.000,0
1593292832.115,169.922,-46.875,-26.855,131.836,0.000,0
1593292832.119,-75.684,-45.898,-25.879,-89.355,0.000,0
1593292832.122,-197.754,-45.410,-28.809,-169.922,0.000,0
1593292832.126,-110.840,-41.504,-29.297,-78.125,0.000,0
1593292832.130,126.465,-43.945,-28.320,117.188,0.000,0
1593292832.134,166.016,-44.922,-27.832,135.742,0.000,0
1593292832.138,-76.660,-41.504,-32.715,-73.242,0.000,0
1593292832.142,-211.914,-37.109,-34.668,-188.965,0.000,0
1593292832.146,-139.648,-37.598,-28.809,-116.211,0.000,0
1593292832.150,99.609,-36.621,-31.738,96.680,0.000,0
1593292832.154,191.895,-34.180,-36.133,165.527,0.000,0
1593292832.158,-30.762,-41.016,-31.738,-39.062,0.000,0
1593292832.161,-180.664,-40.039,-26.855,-168.457,0.000,0
1593292832.165,-141.602,-37.109,-27.344,-110.840,0.000,0
1593292832.169,79.102,-38.574,-30.762,87.402,0.000,0
1593292832.173,215.332,-36.133,-31.738,189.941,0.000,0
1593292832.177,5.859,-34.668,-31.738,-1.465,0.000,0
1593292832.181,-172.852,-38.086,-37.598,-155.273,0.000,0
1593292832.185,-165.039,-43.457,-39.062,-130.371,0.000,0
1593292832.189,29.785,-39.551,-37.598,52.734,0.000,0
1593292832.193,203.613,-30.273,-36.133,185.547,0.000,0
1593292832.197,28.320,-34.668,-35.156,9.766,0.000,0
1593292832.201,-178.711,-38.574,-38.574,-166.016,0.000,0
1593292832.204,-179.199,-34.180,-41.016,-160.156,0.000,0
1593292832.208,18.066,-31.738,-42.969,8.789,0.000,0
1593292832.212,211.914,-31.738,-38.086,172.363,0.000,0
1593292832.216,63.965,-31.738,-37.109,33.203,0.000,0
1593292832.220,-159.180,-32.715,-38.086,-159.180,0.000,0
1593292832.224,-181.152,-35.156,-34.668,-178.711,0.000,0
1593292832.228,-8.789,-38.574,-34.180,-23.438,0.000,0
1593292832.232,204.102,-39.551,-34.668,174.316,0.000,0
1593292832.236,92.285,-38.086,-31.738,64.453,0.000,0
1593292832.240,-143.555,-35.645,-30.762,-140.137,0.000,0
1593292832.244,-189.941,-34.668,-33.203,-163.086,0.000,0
1593292832.247,-41.504,-34.668,-32.715,-22.949,0.000,0
1593292832.251,163.574,-35.156,-29.297,155.273,0.000,0
1593292832.255,92.773,-35.156,-23.438,86.914,0.000,0
1593292832.259,-124.023,-37.598,-24.414,-104.980,0.000,0
1593292832.263,-198.242,-36.621,-25.391,-156.738,0.000,0
1593292832.267,-74.707,-33.691,-26.367,-36.133,0.000,0
1593292832.271,162.598,-32.715,-31.738,164.551,0.000,0
1593292832.275,140.625,-31.738,-28.320,131.836,0.000,0
1593292832.279,-101.074,-31.250,-25.391,-92.285,0.000,0
1593292832.283,-195.312,-32.227,-28.809,-167.969,0.000,0
1593292832.286,-103.027,-32.227,-34.668,-72.754,0.000,0
1593292832.290,129.395,-29.785,-33.203,125.488,0.000,0
1593292832.294,158.203,-28.320,-28.809,133.301,0.000,0
1593292832.298,-81.055,-32.715,-35.645,-77.637,0.000,0
1593292832.302,-194.824,-33.203,-41.016,-170.898,0.000,0
1593292832.306,-116.211,-31.250,-39.062,-105.469,0.000,0
1593292832.310,111.816,-30.273,-32.227,97.168,0.000,0
1593292832.314,176.758,-28.320,-26.855,154.297,0.000,0
1593292832.318,-56.641,-28.320,-29.297,-48.828,0.000,0
1593292832.322,-195.801,-31.738,-36.621,-173.340,0.000,0
1593292832.326,-142.578,-28.320,-34.180,-123.047,0.000,0
1593292832.329,66.895,-28.320,-26.855,72.754,0.000,0
1593292832.333,171.387,-35.156,-26.855,154.785,0.000,0
1593292832.337,-40.039,-37.109,-29.297,-27.832,0.000,0
1593292832.341,-199.707,-36.621,-25.391,-165.527,0.000,0
1593292832.345,-165.527,-38.086,-25.391,-137.695,0.000,0
1593292832.349,42.969,-34.668,-28.320,52.246,0.000,0
1593292832.353,208.496,-32.227,-20.996,184.570,0.000,0
1593292832.357,26.367,-32.227,-22.949,9.277,0.000,0
1593292832.361,-170.898,-30.273,-25.391,-155.762,0.000,0
1593292832.365,-161.621,-29.785,-23.438,-137.207,0.000,0
1593292832.369,32.715,-35.156,-27.344,32.715,0.000,0
1593292832.372,210.449,-37.109,-27.344,187.988,0.000,0
1593292832.376,55.664,-34.180,-31.250,37.598,0.000,0
1593292832.380,-153.809,-37.598,-34.668,-147.949,0.000,0
1593292832.384,-173.340,-36.133,-31.250,-155.273,0.000,0
1593292832.388,-2.930,-32.715,-32.227,-1.465,0.000,0
1593292832.392,206.055,-32.227,-34.180,176.270,0.000,0
1593292832.396,83.008,-34.180,-33.691,47.363,0.000,0
1593292832.400,-144.531,-30.762,-35.156,-157.227,0.000,0
1593292832.404,-182.617,-28.320,-34.180,-160.156,0.000,0
1593292832.408,-26.367,-28.320,-32.227,-16.113,0.000,0
1593292832.411,195.801,-27.832,-30.273,174.316,0.000,0
1593292832.415,104.004,-32.715,-28.809,89.844,0.000,0
1593292832.419,-139.648,-35.156,-29.785,-125.977,0.000,0
1593292832.423,-196.289,-32.715,-29.297,-169.434,0.000,0
1593292832.427,-66.895,-32.715,-27.832,-53.223,0.000,0
1593292832.431,153.320,-39.062,-28.809,145.020,0.000,0
1593292832.435,109.863,-35.645,-27.344,107.422,0.000,0
1593292832.439,-129.883,-29.785,-27.344,-106.934,0.000,0
1593292832.443,-211.914,-31.250,-34.180,-174.805,0.000,0
1593292832.447,-109.375,-34.180,-34.180,-70.312,0.000,0
1593292832.451,134.277,-38.086,-32.227,132.324,0.000,0
1593292832.454,155.762,-34.668,-30.273,136.719,0.000,0
1593292832.458,-80.078,-31.250,-26.367,-75.195,0.000,0
1593292832.462,-179.688,-33.203,-26.367,-176.758,0.000,0
1593292832.466,-96.680,-33.203,-28.809,-92.773,0.000,0
1593292832.470,125.000,-31.738,-30.762,118.652,0.000,0
1593292832.474,183.105,-31.738,-35.645,152.344,0.000,0
1593292832.478,-48.828,-35.156,-37.598,-58.594,0.000,0
1593292832.482,-179.688,-37.109,-35.645,-174.805,0.000,0
1593292832.486,-119.141,-38.086,-37.598,-107.910,0.000,0
1593292832.490,112.793,-38.086,-38.086,97.656,0.000,0
1593292832.494,211.426,-39.062,-35.156,170.410,0.000,0
1593292832.497,-9.766,-39.062,-33.203,-26.367,0.000,0
1593292832.501,-175.781,-40.039,-34.668,-165.527,0.000,0
1593292832.505,-145.020,-40.527,-39.062,-127.441,0.000,0
1593292832.509,81.055,-36.621,-35.156,63.965,0.000,0
1593292832.513,211.426,-35.156,-24.414,172.363,0.000,0
1593292832.517,14.160,-35.156,-23.926,-12.207,0.000,0
1593292832.521,-175.781,-35.645,-23.926,-164.062,0.000,0
1593292832.525,-184.082,-39.551,-24.902,-135.742,0.000,0
1593292832.529,17.090,-39.062,-32.715,36.621,0.000,0
1593292832.533,189.453,-40.039,-35.156,171.875,0.000,0
1593292832.536,10.254,-39.062,-32.227,10.742,0.000,0
1593292832.540,-185.059,-32.715,-34.668,-160.645,0.000,0
1593292832.544,-184.570,-31.250,-33.203,-152.344,0.000,0
1593292832.548,-6.348,-30.762,-34.668,15.625,0.000,1
1593292832.552,203.613,-28.809,-41.016,186.523,0.000,0
1593292832.556,71.777,-31.738,-39.551,55.176,0.000,0
1593292832.560,-156.250,-34.668,-39.551,-145.508,0.000,0
1593292832.564,-180.176,-33.203,-40.527,-168.945,0.000,0
1593292832.568,-18.555,-30.273,-37.109,-24.414,0.000,0
1593292832.572,206.055,-26.855,-37.109,162.598,0.000,0
1593292832.576,121.094,-29.785,-44.922,70.312,0.000,0
1593292832.579,-118.164,-36.133,-44.922,-135.742,0.000,0
1593292832.583,-182.617,-34.668,-41.504,-175.293,0.000,0
1593292832.587,-43.945,-31.738,-38.574,-44.922,0.000,0
1593292832.591,187.012,-31.738,-32.715,162.109,0.000,0
1593292832.595,117.188,-36.133,-32.715,98.145,0.000,0
1593292832.599,-125.488,-37.109,-36.133,-125.977,0.000,0
1593292832.603,-194.336,-31.250,-37.109,-172.363,0.000,0
1593292832.607,-84.473,-32.715,-36.133,-62.012,0.000,0
1593292832.611,150.391,-32.227,-33.691,129.883,0.000,0
1593292832.615,142.578,-32.715,-39.062,107.422,0.000,0
1593292832.619,-104.492,-39.062,-37.598,-106.445,0.000,0
1593292832.622,-207.520,-40.039,-34.668,-190.918,0.000,0
1593292832.626,-118.652,-37.598,-37.109,-90.332,0.000,0
1593292832.630,117.676,-36.133,-36.621,120.605,0.000,0
1593292832.634,166.504,-34.668,-36.621,127.930,0.000,0
1593292832.638,-72.266,-33.203,-36.133,-84.473,0.000,0
1593292832.642,-208.008,-34.180,-41.016,-195.312,0.000,0
1593292832.646,-144.531,-38.086,-47.363,-128.906,0.000,0
1593292832.650,83.984,-38.086,-46.387,81.055,0.000,0
1593292832.654,176.270,-39.551,-41.016,137.695,0.000,0
1593292832.658,-43.945,-39.551,-41.504,-68.359,0.000,0
1593292832.661,-201.172,-37.598,-40.527,-193.848,0.000,0
1593292832.665,-160.645,-42.480,-41.504,-153.809,0.000,0
1593292832.669,63.965,-41.504,-44.434,47.852,0.000,0
1593292832.673,185.059,-40.527,-45.898,149.414,0.000,0
1593292832.677,-20.996,-42.969,-42.480,-40.527,0.000,0
1593292832.681,-190.430,-37.109,-40.039,-183.594,0.000,0
1593292832.685,-171.387,-37.109,-38.574,-154.297,0.000,0
1593292832.689,41.016,-40.039,-33.691,33.203,0.000,0
1593292832.693,205.078,-34.668,-36.621,166.504,0.000,0
1593292832.697,3.418,-32.715,-34.180,-7.324,0.000,0
1593292832.701,-201.172,-37.598,-29.297,-172.852,0.000,0
1593292832.704,-194.824,-36.133,-36.133,-157.227,0.000,0
1593292832.708,0.977,-33.203,-35.645,19.043,0.000,0
1593292832.712,197.754,-36.621,-30.762,179.688,0.000,0
1593292832.716,41.504,-36.133,-31.738,31.738,0.000,0
1593292832.720,-185.547,-33.691,-33.691,-157.715,0.000,0
1593292832.724,-208.496,-32.715,-36.621,-156.738,0.000,0
1593292832.728,-32.715,-30.762,-37.109,1.465,0.000,0
1593292832.732,184.570,-32.715,-36.621,177.246,0.000,0
1593292832.736,67.871,-35.156,-36.621,57.617,0.000,0
1593292832.740,-171.387,-33.691,-31.250,-144.043,0.000,0
1593292832.744,-210.938,-32.227,-23.438,-164.062,0.000,0
1593292832.747,-56.152,-30.762,-24.414,-31.738,0.000,0
1593292832.751,169.434,-34.668,-28.809,165.527,0.000,0
1593292832.755,101.074,-37.109,-32.715,99.121,0.000,0
1593292832.759,-138.184,-31.738,-30.273,-112.793,0.000,0
1593292832.763,-205.566,-30.273,-27.832,-166.504,0.000,0
1593292832.767,-81.543,-27.344,-33.203,-48.828,0.000,0
1593292832.771,151.367,-28.320,-36.133,158.691,0.000,0
1593292832.775,127.930,-33.691,-33.691,118.652,0.000,0
1593292832.779,-108.887,-33.203,-29.297,-106.445,0.000,0
1593292832.783,-200.684,-34.180,-32.715,-177.734,0.000,0
1593292832.786,-106.934,-31.738,-36.133,-82.031,0.000,0
1593292832.790,130.371,-24.902,-37.598,120.605,0.000,0
1593292832.794,148.926,-25.391,-38.086,125.000,0.000,0
1593292832.798,-86.914,-28.809,-40.039,-95.215,0.000,0
1593292832.802,-192.871,-26.855,-45.898,-180.176,0.000,0
1593292832.806,-125.000,-27.344,-43.457,-98.633,0.000,0
1593292832.810,110.352,-31.250,-37.109,109.863,0.000,0
1593292832.814,177.246,-31.250,-36.133,152.344,0.000,0
1593292832.818,-60.547,-30.273,-34.180,-67.871,0.000,0
1593292832.822,-194.824,-29.297,-31.250,-185.547,0.000,0
1593292832.826,-139.160,-30.762,-35.645,-127.930,0.000,0
1593292832.829,86.914,-30.273,-36.133,77.637,0.000,0
1593292832.833,195.801,-28.809,-33.691,165.527,0.000,0
1593292832.837,-27.344,-27.832,-36.621,-34.668,0.000,0
1593292832.841,-196.289,-29.297,-34.668,-173.828,0.000,0
1593292832.845,-159.668,-32.227,-32.715,-134.277,0.000,0
1593292832.849,56.641,-29.785,-33.691,55.664,0.000,0
1593292832.853,206.543,-31.738,-32.715,174.316,0.000,0
1593292832.857,5.859,-36.621,-31.738,-11.719,0.000,0
1593292832.861,-184.570,-35.156,-35.156,-170.898,0.000,0
1593292832.865,-167.480,-29.785,-33.691,-145.508,0.000,0
1593292832.869,32.227,-34.180,-31.738,23.926,0.000,0
1593292832.872,210.938,-37.109,-32.227,164.062,0.000,0
1593292832.876,51.758,-35.645,-32.227,12.695,0.000,0
1593292832.880,-157.227,-32.715,-35.156,-165.527,0.000,0
1593292832.884,-176.758,-34.180,-36.133,-164.062,0.000,0
1593292832.888,-7.324,-33.691,-31.250,5.859,0.000,0
1593292832.892,206.055,-25.879,-25.391,183.594,0.000,0
1593292832.896,73.242,-29.785,-24.902,58.594,0.000,0
1593292832.900,-166.016,-37.598,-34.668,-146.973,0.000,0
1593292832.904,-200.684,-35.156,-38.574,-170.898,0.000,0
1593292832.908,-39.551,-35.645,-31.738,-20.996,0.000,0
1593292832.911,187.988,-33.691,-27.344,170.410,0.000,0
1593292832.915,98.633,-29.297,-22.461,82.031,0.000,0
1593292832.919,-140.625,-25.879,-24.902,-124.512,0.000,0
1593292832.923,-195.801,-24.902,-28.809,-159.180,0.000,0
1593292832.927,-61.035,-26.367,-26.855,-41.016,0.000,0
1593292832.931,172.852,-26.855,-25.879,154.297,0.000,0
1593292832.935,127.930,-26.367,-27.344,98.633,0.000,0
1593292832.939,-120.117,-30.762,-27.832,-118.164,0.000,0
1593292832.943,-206.543,-33.691,-28.320,-172.852,0.000,0
1593292832.947,-91.309,-30.762,-31.738,-67.871,0.000,0
1593292832.951,154.297,-27.344,-29.785,153.320,0.000,0
1593292832.954,140.625,-27.832,-30.273,126.465,0.000,0
1593292832.958,-104.980,-28.320,-32.715,-97.168,0.000,0
1593292832.962,-190.430,-32.227,-35.645,-165.527,0.000,0
1593292832.966,-109.863,-31.738,-35.645,-88.867,0.000,0
1593292832.970,120.605,-29.785,-33.691,109.863,0.000,0
1593292832.974,158.691,-30.762,-31.250,139.648,0.000,0
1593292832.978,-77.148,-26.855,-33.691,-72.754,0.000,0
1593292832.982,-203.613,-27.344,-37.109,-177.734,0.000,0
1593292832.986,-137.207,-30.762,-34.180,-102.051,0.000,0
1593292832.990,99.121,-27.344,-35.156,98.633,0.000,0
1593292832.994,178.711,-27.344,-36.133,151.855,0.000,0
1593292832.997,-48.340,-29.785,-31.738,-38.574,0.000,0
1593292833.001,-198.242,-29.785,-29.785,-166.504,0.000,0
1593292833.005,-163.086,-30.762,-33.691,-136.230,0.000,0
1593292833.009,63.965,-28.320,-32.715,62.988,0.000,0
1593292833.013,201.660,-26.367,-33.691,173.340,0.000,0
1593292833.017,10.742,-27.832,-34.180,-8.789,0.000,0
1593292833.021,-175.781,-30.762,-35.645,-166.992,0.000,0
1593292833.025,-168.945,-31.250,-37.598,-139.160,0.000,0
1593292833.029,40.527,-32.715,-33.203,46.875,0.000,0
1593292833.033,202.637,-31.250,-25.879,179.688,0.000,0
1593292833.036,25.391,-27.344,-23.926,9.277,0.000,0
1593292833.040,-180.176,-29.297,-28.809,-159.180,0.000,0
1593292833.044,-190.430,-35.156,-31.738,-146.973,0.000,0
1593292833.048,3.906,-33.203,-28.320,31.738,0.000,0
1593292833.052,207.520,-31.250,-27.832,192.383,0.000,0
1593292833.056,54.199,-32.715,-31.250,41.016,0.000,0
1593292833.060,-161.133,-31.738,-29.297,-141.602,0.000,0
1593292833.064,-192.871,-32.715,-30.762,-152.832,0.000,0
1593292833.068,-40.039,-32.715,-33.203,-18.555,0.000,0
1593292833.072,183.105,-34.180,-29.297,166.992,0.000,0
1593292833.076,86.426,-32.715,-27.832,74.707,0.000,0
1593292833.079,-146.973,-31.250,-30.273,-136.719,0.000,0
1593292833.083,-198.242,-28.320,-29.785,-167.480,0.000,0
1593292833.087,-46.387,-25.391,-29.785,-31.250,0.000,0
1593292833.091,173.340,-30.762,-34.668,159.668,0.000,0
1593292833.095,103.027,-34.668,-37.109,91.309,0.000,0
1593292833.099,-131.348,-33.203,-36.621,-118.652,0.000,0
1593292833.103,-203.125,-29.785,-37.598,-179.688,0.000,0
1593292833.107,-84.473,-29.785,-39.062,-78.125,0.000,0
1593292833.111,148.926,-35.645,-41.016,126.953,0.000,0
1593292833.115,136.230,-37.109,-37.598,105.469,0.000,0
1593292833.119,-108.398,-32.227,-38.086,-114.258,0.000,0
1593292833.122,-209.473,-34.668,-41.992,-188.965,0.000,0
1593292833.126,-107.422,-36.621,-42.969,-92.285,0.000,0
1593292833.130,130.371,-31.250,-43.945,116.211,0.000,0
1593292833.134,155.273,-30.762,-44.434,125.488,0.000,0
1593292833.138,-88.867,-35.645,-44.922,-88.379,0.000,0
1593292833.142,-214.355,-41.016,-42.480,-185.547,0.000,0
1593292833.146,-135.742,-36.133,-40.527,-112.793,0.000,0
1593292833.150,96.680,-32.227,-40.039,91.797,0.000,0
1593292833.154,175.293,-34.668,-36.621,145.508,0.000,0
1593292833.158,-55.176,-32.227,-33.203,-61.523,0.000,0
1593292833.161,-204.590,-28.809,-31.738,-177.246,0.000,0
1593292833.165,-155.273,-26.855,-31.738,-117.188,0.000,0
1593292833.169,66.895,-29.785,-33.203,78.613,0.000,0
1593292833.173,191.406,-33.203,-35.645,166.016,0.000,0
1593292833.177,-16.602,-30.762,-39.551,-23.926,0.000,0
1593292833.181,-190.918,-31.250,-38.086,-165.039,0.000,0
1593292833.185,-165.527,-31.250,-36.133,-132.812,0.000,0
1593292833.189,50.781,-31.250,-38.574,56.641,0.000,0
1593292833.193,209.961,-33.691,-35.156,189.941,0.000,0
1593292833.197,23.438,-34.668,-33.203,19.531,0.000,0
1593292833.201,-173.828,-36.621,-34.180,-167.969,0.000,0
1593292833.204,-165.039,-38.086,-27.832,-149.414,0.000,0
1593292833.208,26.855,-37.109,-24.414,25.879,0.000,0
1593292833.212,206.543,-32.715,-31.738,178.711,0.000,0
1593292833.216,51.270,-31.250,-34.668,33.203,0.000,0
1593292833.220,-171.387,-30.762,-30.273,-155.762,0.000,0
1593292833.224,-180.664,-29.785,-24.902,-158.203,0.000,0
1593292833.228,-6.348,-27.832,-24.414,-2.441,0.000,0
1593292833.232,195.801,-25.879,-25.391,181.152,0.000,0
1593292833.236,74.219,-24.414,-23.926,53.711,0.000,0
1593292833.240,-158.691,-27.344,-25.879,-153.320,0.000,0
1593292833.244,-189.453,-26.855,-31.250,-155.762,0.000,0
1593292833.247,-32.715,-20.508,-31.738,-8.789,0.000,0
1593292833.251,188.965,-24.902,-33.691,174.805,0.000,0
1593292833.255,109.375,-29.297,-31.738,85.938,0.000,0
1593292833.259,-125.488,-24.414,-29.785,-115.723,0.000,0
1593292833.263,-186.523,-23.926,-33.691,-162.109,0.000,0
1593292833.267,-56.152,-26.855,-25.391,-43.945,0.000,0
1593292833.271,186.035,-28.809,-28.320,162.598,0.000,0
1593292833.275,138.672,-28.809,-34.668,116.699,0.000,0
1593292833.279,-121.094,-27.344,-30.762,-105.469,0.000,0
1593292833.283,-198.730,-29.297,-34.668,-173.828,0.000,0
1593292833.286,-86.914,-31.738,-35.645,-63.477,0.000,0
1593292833.290,150.391,-27.832,-27.832,141.113,0.000,0
1593292833.294,161.621,-28.320,-22.461,138.672,0.000,0
1593292833.298,-80.566,-31.250,-27.344,-71.289,0.000,0
1593292833.302,-185.059,-25.391,-31.250,-158.691,0.000,0
1593292833.306,-103.027,-24.414,-30.273,-72.266,0.000,0
1593292833.310,125.488,-30.762,-32.227,125.488,0.000,0
1593292833.314,190.918,-30.273,-33.203,159.180,0.000,0
1593292833.318,-40.527,-26.855,-29.785,-48.828,0.000,0
1593292833.322,-186.035,-28.320,-27.344,-166.992,0.000,0
1593292833.326,-140.625,-30.273,-29.785,-115.723,0.000,0
1593292833.329,93.750,-32.715,-34.180,90.820,0.000,0
1593292833.333,181.641,-32.715,-35.645,161.133,0.000,0
1593292833.337,-43.945,-30.762,-33.691,-40.039,0.000,1
1593292833.341,-193.359,-31.250,-33.203,-162.109,0.000,0
1593292833.345,-168.457,-31.738,-33.691,-131.348,0.000,0
1593292833.349,53.711,-31.738,-34.180,58.105,0.000,0
1593292833.353,197.754,-35.156,-31.738,172.852,0.000,0
1593292833.357,-7.324,-37.109,-32.715,-16.113,0.000,0
1593292833.361,-192.871,-36.133,-36.133,-172.363,0.000,0
1593292833.365,-173.828,-36.621,-39.551,-158.203,0.000,0
1593292833.369,17.578,-34.668,-43.945,11.719,0.000,0
1593292833.372,194.824,-30.762,-40.039,159.668,0.000,0
1593292833.376,28.809,-36.133,-42.480,4.883,0.000,0
1593292833.380,-189.941,-39.062,-44.434,-173.340,0.000,0
1593292833.384,-183.594,-33.691,-36.133,-168.945,0.000,0
1593292833.388,10.742,-32.227,-36.621,-0.977,0.000,0
1593292833.392,208.008,-33.203,-38.086,175.293,0.000,0
1593292833.396,80.566,-32.227,-31.738,46.387,0.000,0
1593292833.400,-130.859,-26.855,-32.715,-142.090,0.000,0
1593292833.404,-148.438,-23.926,-35.156,-158.203,0.000,0
1593292833.408,10.254,-25.391,-37.109,-19.043,0.000,0
1593292833.411,229.004,-28.809,-38.574,167.480,0.000,0
1593292833.415,122.559,-31.250,-30.273,72.754,0.000,0
1593292833.419,-124.023,-31.738,-28.809,-128.418,0.000,0
1593292833.423,-174.805,-29.785,-33.203,-158.203,0.000,0
1593292833.427,-48.340,-26.367,-32.715,-28.320,0.000,0
